# nm = 1024 nc = 100 len = 40 extf = 0 beta = 0.451
#energy 	magnetization 	acceptance
-1.54	0.765	0.167744
-1.555	0.72875	0.162581
-1.53	0.66875	0.169175
-1.5025	0.72125	0.18475
-1.415	0.7175	0.163581
-1.5425	0.775	0.155662
-1.485	0.7525	0.1534
-1.575	0.80125	0.152094
-1.4225	0.66625	0.1668
-1.4825	0.70875	0.171388
-1.56	0.81625	0.166887
-1.58	0.83	0.147419
-1.56	0.83125	0.141344
-1.58	0.84125	0.148138
-1.42	0.7175	0.170344
-1.5775	0.78375	0.166431
-1.495	0.665	0.197931
-1.4425	0.755	0.15475
-1.6275	0.85625	0.146506
-1.5275	0.82125	0.147975
-1.5225	0.77125	0.155325
-1.4575	0.76875	0.144925
-1.49	0.70625	0.17985
-1.5575	0.8075	0.161669
-1.5575	0.75375	0.153906
-1.52	0.7775	0.157406
-1.555	0.78125	0.147069
-1.515	0.72	0.170269
-1.5125	0.80375	0.155094
-1.5	0.72875	0.17135
-1.535	0.80125	0.153775
-1.5775	0.86	0.145481
-1.5375	0.81875	0.144781
-1.4725	0.7625	0.150606
-1.59	0.835	0.166912
-1.635	0.86	0.144462
-1.57	0.77875	0.146894
-1.44	0.74875	0.151413
-1.5575	0.81875	0.161175
-1.4275	0.6675	0.152344
-1.4125	0.71875	0.183931
-1.4275	0.77125	0.157087
-1.5525	0.8275	0.145294
-1.5225	0.68625	0.173394
-1.415	0.73625	0.18775
-1.555	0.81	0.149931
-1.54	0.81375	0.143519
-1.5125	0.735	0.153994
-1.5175	0.63875	0.181681
-1.4175	0.59625	0.1869
-1.3875	0.65	0.192431
-1.7175	0.9025	0.166038
-1.4625	0.6475	0.165587
-1.4575	0.77125	0.177269
-1.4675	0.7675	0.157794
-1.4475	0.6825	0.1709
-1.58	0.80625	0.174206
-1.56	0.82875	0.166925
-1.54	0.7725	0.153581
-1.545	0.84375	0.151194
-1.55	0.83125	0.13555
-1.66	0.85875	0.146325
-1.485	0.735	0.148219
-1.505	0.77125	0.158006
-1.6175	0.835	0.170694
-1.605	0.85625	0.145519
-1.5125	0.79125	0.153313
-1.63	0.84875	0.142013
-1.5775	0.8275	0.143019
-1.5675	0.82	0.153875
-1.5875	0.80125	0.153569
-1.6675	0.88125	0.14445
-1.5175	0.81875	0.152163
-1.5075	0.7475	0.175644
-1.57	0.79375	0.157381
-1.555	0.80875	0.169662
-1.4575	0.7	0.174981
-1.54	0.7825	0.159712
-1.4925	0.8125	0.147137
-1.47	0.74625	0.161531
-1.605	0.82375	0.159825
-1.605	0.8525	0.151956
-1.4175	0.7375	0.158775
-1.5175	0.73625	0.167069
-1.4325	0.6525	0.167619
-1.59	0.835	0.167963
-1.4975	0.795	0.14225
-1.49	0.79	0.153063
-1.5075	0.76875	0.160431
-1.4975	0.76	0.176006
-1.625	0.86625	0.162219
-1.4975	0.805	0.150944
-1.5775	0.8325	0.153713
-1.495	0.72625	0.157594
-1.53	0.7575	0.178044
-1.55	0.82	0.152163
-1.4925	0.79	0.149225
-1.495	0.72125	0.149044
-1.46	0.77125	0.161137
-1.5075	0.67875	0.171375
-1.52	0.77125	0.165337
-1.4475	0.7525	0.142644
-1.55	0.77375	0.166256
-1.62	0.8575	0.152856
-1.5075	0.77125	0.151269
-1.58	0.82375	0.152275
-1.4075	0.65875	0.171625
-1.34	0.53125	0.185587
-1.5675	0.77125	0.172525
-1.41	0.68625	0.185325
-1.565	0.83	0.155669
-1.495	0.76375	0.148406
-1.5125	0.77625	0.163912
-1.5275	0.81	0.137056
-1.65	0.8575	0.149012
-1.48	0.7275	0.175688
-1.4475	0.755	0.149675
-1.5275	0.7675	0.1592
-1.465	0.7225	0.165025
-1.6075	0.82875	0.153356
-1.45	0.745	0.150844
-1.3975	0.705	0.183825
-1.6225	0.84125	0.170606
-1.4225	0.73875	0.1642
-1.5575	0.78375	0.157688
-1.5625	0.78125	0.147512
-1.5775	0.825	0.162394
-1.66	0.885	0.1489
-1.6975	0.9	0.154363
-1.5325	0.7725	0.14715
-1.545	0.77125	0.143731
-1.5925	0.855	0.152906
-1.525	0.8075	0.176525
-1.4125	0.7075	0.1557
-1.58	0.85125	0.155781
-1.3975	0.65	0.159994
-1.5925	0.84375	0.174056
-1.5475	0.785	0.145906
-1.5775	0.81375	0.146069
-1.405	0.7425	0.157319
-1.5925	0.86	0.154625
-1.5875	0.835	0.142125
-1.675	0.8875	0.135862
-1.455	0.79125	0.148619
-1.495	0.70875	0.155712
-1.4	0.5625	0.174781
-1.38	0.5975	0.1825
-1.395	0.485	0.192188
-1.49	0.76125	0.166106
-1.5425	0.805	0.147469
-1.5225	0.715	0.1483
-1.475	0.77	0.15015
-1.5975	0.85375	0.148369
-1.405	0.61	0.167169
-1.5425	0.76625	0.177256
-1.645	0.865	0.152594
-1.5475	0.84	0.156113
-1.415	0.66625	0.158631
-1.4625	0.625	0.187844
-1.5775	0.70125	0.185844
-1.425	0.615	0.183919
-1.685	0.88125	0.161744
-1.54	0.8	0.145044
-1.5125	0.72875	0.155631
-1.5375	0.805	0.149081
-1.505	0.80125	0.149444
-1.53	0.73625	0.154562
-1.66	0.87125	0.147725
-1.465	0.68375	0.1615
-1.52	0.77125	0.161
-1.6525	0.87125	0.146088
-1.455	0.695	0.164819
-1.575	0.825	0.151562
-1.54	0.8125	0.156087
-1.6175	0.85	0.152537
-1.5225	0.80875	0.150831
-1.6725	0.88	0.140306
-1.4525	0.76875	0.145081
-1.5575	0.7775	0.159331
-1.53	0.8075	0.152625
-1.5325	0.72125	0.147119
-1.43	0.70875	0.154775
-1.3525	0.71	0.165106
-1.58	0.82875	0.151144
-1.55	0.8375	0.160344
-1.485	0.79625	0.157156
-1.5925	0.83625	0.14465
-1.5	0.79625	0.1467
-1.47	0.75125	0.141325
-1.65	0.89	0.149731
-1.55	0.7925	0.137462
-1.5225	0.80375	0.155019
-1.5175	0.80625	0.148363
-1.545	0.8	0.152844
-1.49	0.77	0.158313
-1.46	0.70125	0.154256
-1.3925	0.56	0.186419
-1.3775	0.58375	0.190431
-1.475	0.7625	0.179444
-1.43	0.745	0.153175
-1.6725	0.87625	0.165006
-1.595	0.8525	0.145719
-1.3875	0.7125	0.172737
-1.555	0.82875	0.155356
-1.5175	0.81625	0.148
-1.4475	0.63	0.158669
-1.52	0.80875	0.167119
-1.5725	0.78875	0.1485
-1.425	0.735	0.152481
-1.5975	0.82625	0.139394
-1.52	0.78	0.141344
-1.5325	0.81125	0.145931
-1.4575	0.77	0.149319
-1.505	0.68	0.167137
-1.55	0.7975	0.162375
-1.5175	0.76625	0.153519
-1.525	0.69375	0.1558
-1.475	0.6975	0.174031
-1.555	0.81375	0.150944
-1.555	0.82875	0.14365
-1.5125	0.77	0.149956
-1.5725	0.7825	0.149075
-1.555	0.78	0.167175
-1.4825	0.76875	0.150481
-1.575	0.77375	0.154862
-1.595	0.835	0.156819
-1.53	0.74375	0.149656
-1.6275	0.85625	0.153425
-1.5525	0.78	0.160219
-1.495	0.78625	0.148506
-1.5725	0.8325	0.148156
-1.4725	0.755	0.148163
-1.56	0.79375	0.149244
-1.49	0.74125	0.148863
-1.595	0.83375	0.157213
-1.5425	0.805	0.144531
-1.5025	0.795	0.1563
-1.5675	0.8175	0.151275
-1.5275	0.82125	0.147794
-1.55	0.78875	0.161263
-1.56	0.81	0.159469
-1.575	0.8475	0.138475
-1.4925	0.78125	0.149006
-1.45	0.7	0.158831
-1.5275	0.8075	0.166425
-1.5	0.76125	0.158869
-1.61	0.8725	0.148531
-1.52	0.81375	0.135619
-1.5225	0.7825	0.157056
-1.5775	0.82	0.159263
-1.42	0.63875	0.167369
-1.615	0.83625	0.174025
-1.515	0.715	0.151069
-1.5175	0.7375	0.176138
-1.365	0.6225	0.174675
-1.63	0.84875	0.169394
-1.57	0.825	0.158644
-1.4625	0.7625	0.169875
-1.4075	0.735	0.158475
-1.5375	0.80375	0.165344
-1.4975	0.7	0.163694
-1.5275	0.78875	0.164631
-1.635	0.87125	0.154625
-1.52	0.82375	0.140512
-1.5825	0.8325	0.162544
-1.4875	0.7725	0.146025
-1.64	0.86125	0.148169
-1.63	0.8525	0.142819
-1.645	0.865	0.141987
-1.5825	0.8375	0.146487
-1.485	0.7425	0.167963
-1.5325	0.82	0.152425
-1.565	0.83	0.1584
-1.4675	0.74875	0.156044
-1.54	0.8	0.149744
-1.51	0.75875	0.159706
-1.5425	0.7775	0.148969
-1.5575	0.79875	0.169244
-1.4875	0.6925	0.149794
-1.385	0.71625	0.160856
-1.4725	0.76	0.157969
-1.455	0.69	0.159413
-1.5125	0.7825	0.167963
-1.53	0.815	0.155463
-1.435	0.725	0.171013
-1.495	0.70875	0.184669
-1.47	0.7425	0.178131
-1.49	0.75	0.166537
-1.575	0.81125	0.153181
-1.535	0.8275	0.158119
-1.6525	0.87875	0.150531
-1.61	0.855	0.154356
-1.59	0.80375	0.155069
-1.565	0.8225	0.156256
-1.5475	0.82375	0.154706
-1.55	0.78875	0.150675
-1.605	0.83375	0.140137
-1.55	0.8225	0.153706
-1.6825	0.89125	0.150656
-1.3525	0.6075	0.156419
-1.545	0.79375	0.159456
-1.4975	0.7625	0.153219
-1.59	0.855	0.14695
-1.5375	0.81375	0.138494
-1.5825	0.83375	0.155413
-1.52	0.79875	0.147562
-1.4825	0.64625	0.17255
-1.4475	0.70125	0.17975
-1.36	0.58125	0.186475
-1.38	0.68125	0.187437
-1.5025	0.79	0.156206
-1.55	0.79875	0.166969
-1.4425	0.7325	0.178381
-1.485	0.715	0.157775
-1.515	0.79	0.166238
-1.625	0.845	0.1476
-1.495	0.74125	0.153319
-1.53	0.78625	0.160325
-1.5225	0.75375	0.146212
-1.6025	0.82125	0.161962
-1.4275	0.7275	0.148381
-1.4525	0.6875	0.17215
-1.565	0.77875	0.164944
-1.605	0.7975	0.150494
-1.575	0.77125	0.155619
-1.5275	0.805	0.140656
-1.5775	0.82	0.15875
-1.5475	0.79	0.141412
-1.5525	0.84625	0.143081
-1.5325	0.80375	0.159975
-1.465	0.7225	0.156256
-1.6025	0.8375	0.17715
-1.5575	0.805	0.150538
-1.5975	0.79125	0.150794
-1.5975	0.8525	0.161381
-1.39	0.69625	0.154131
-1.45	0.74875	0.168675
-1.56	0.8225	0.145356
-1.6	0.84875	0.146106
-1.5175	0.80875	0.14505
-1.5325	0.78	0.147194
-1.55	0.79125	0.158294
-1.575	0.8325	0.146144
-1.5925	0.8475	0.1454
-1.3225	0.52375	0.174569
-1.535	0.66375	0.168875
-1.4525	0.6275	0.171694
-1.565	0.8125	0.1568
-1.4575	0.63625	0.165044
-1.585	0.76875	0.16675
-1.6575	0.88	0.154581
-1.525	0.80625	0.145869
-1.455	0.6775	0.166806
-1.45	0.76125	0.162644
-1.5175	0.7725	0.151006
-1.6225	0.84875	0.137181
-1.645	0.85625	0.152125
-1.595	0.85375	0.134525
-1.4675	0.72	0.148094
-1.5	0.75375	0.172094
-1.6175	0.85875	0.146075
-1.6025	0.83375	0.142788
-1.5075	0.79875	0.152575
-1.535	0.80625	0.160662
-1.5675	0.83375	0.137187
-1.47	0.71125	0.157638
-1.6175	0.76375	0.173762
-1.49	0.7975	0.154381
-1.525	0.8125	0.150762
-1.565	0.8225	0.1582
-1.575	0.8475	0.1516
-1.4925	0.7825	0.155812
-1.455	0.71	0.162925
-1.405	0.63	0.1838
-1.59	0.8175	0.159025
-1.5325	0.79625	0.154844
-1.57	0.82	0.151506
-1.54	0.8125	0.15515
-1.5875	0.8575	0.145375
-1.665	0.86	0.156512
-1.5175	0.72	0.16565
-1.5025	0.745	0.169638
-1.4475	0.66625	0.163244
-1.5175	0.77	0.165794
-1.61	0.85125	0.147331
-1.5975	0.8175	0.145381
-1.525	0.75375	0.167144
-1.485	0.7575	0.157256
-1.5725	0.815	0.150363
-1.575	0.82875	0.145144
-1.485	0.79375	0.175313
-1.6225	0.84875	0.136725
-1.6225	0.84375	0.136725
-1.5675	0.83	0.147081
-1.525	0.7775	0.153725
-1.3875	0.4475	0.186075
-1.42	0.24125	0.217019
-1.285	0.39125	0.211338
-1.4025	0.38875	0.205037
-1.5275	0.7625	0.189806
-1.445	0.78125	0.147894
-1.6	0.8	0.150569
-1.5975	0.78125	0.167994
-1.615	0.835	0.147769
-1.4725	0.74	0.16935
-1.6225	0.8575	0.1464
-1.56	0.79875	0.151094
-1.4175	0.75375	0.164688
-1.59	0.81125	0.15425
-1.5725	0.78375	0.149575
-1.6025	0.83875	0.141237
-1.4725	0.69875	0.153725
-1.5125	0.78125	0.17135
-1.4775	0.68125	0.159275
-1.465	0.58625	0.177475
-1.4675	0.735	0.166369
-1.5	0.775	0.157413
-1.5175	0.80125	0.161881
-1.6375	0.8625	0.141319
-1.385	0.6975	0.155688
-1.54	0.79625	0.157831
-1.415	0.71625	0.18235
-1.5425	0.8	0.146506
-1.495	0.80375	0.158356
-1.5425	0.74875	0.151888
-1.5925	0.825	0.172694
-1.5225	0.8075	0.154663
-1.415	0.725	0.163587
-1.51	0.78125	0.147744
-1.4875	0.60125	0.1759
-1.4575	0.70375	0.191837
-1.61	0.83125	0.163437
-1.5425	0.8125	0.142269
-1.5625	0.83	0.162275
-1.605	0.85625	0.143331
-1.495	0.785	0.173019
-1.5775	0.8025	0.159113
-1.6075	0.8125	0.167213
-1.4575	0.73625	0.168519
-1.47	0.73	0.153544
-1.5025	0.815	0.1494
-1.5375	0.69	0.163513
-1.51	0.76375	0.151119
-1.5775	0.81375	0.1576
-1.52	0.805	0.139869
-1.555	0.81125	0.161269
-1.4875	0.6775	0.155844
-1.48	0.7475	0.162862
-1.5975	0.8675	0.152863
-1.575	0.8375	0.145162
-1.5425	0.77125	0.154531
-1.58	0.83875	0.154388
-1.5225	0.64	0.177819
-1.5625	0.83125	0.158931
-1.53	0.80875	0.14335
-1.54	0.8	0.154694
-1.555	0.74375	0.158456
-1.4875	0.78375	0.160362
-1.5275	0.775	0.154456
-1.4775	0.66875	0.169494
-1.465	0.67	0.166731
-1.61	0.855	0.148737
-1.4925	0.6875	0.15655
-1.5125	0.735	0.176975
-1.495	0.70375	0.176181
-1.3575	0.57375	0.165575
-1.265	0.35625	0.211663
-1.385	0.275	0.211744
-1.425	0.1425	0.211012
-1.3575	0.1525	0.215688
-1.51	0.68375	0.195906
-1.4225	0.625	0.172969
-1.5325	0.805	0.161325
-1.4875	0.73	0.146525
-1.4375	0.6425	0.158663
-1.45	0.66375	0.176169
-1.5325	0.76375	0.16615
-1.59	0.855	0.144356
-1.655	0.875	0.149375
-1.5975	0.8125	0.144675
-1.4475	0.7425	0.16085
-1.4525	0.62125	0.166869
-1.52	0.78625	0.15815
-1.49	0.715	0.158219
-1.5	0.8075	0.153387
-1.5925	0.82	0.1504
-1.5375	0.80875	0.150069
-1.6075	0.84375	0.157075
-1.5275	0.75875	0.164288
-1.545	0.79625	0.15085
-1.5625	0.77375	0.162675
-1.4	0.6925	0.162819
-1.5725	0.84	0.162137
-1.4425	0.71625	0.171369
-1.45	0.55125	0.184625
-1.54	0.71	0.173369
-1.565	0.80375	0.171431
-1.5425	0.83	0.148281
-1.545	0.79	0.139825
-1.59	0.85	0.149812
-1.5975	0.83625	0.146881
-1.485	0.65875	0.17285
-1.5575	0.83	0.168694
-1.56	0.82125	0.153781
-1.535	0.8225	0.145294
-1.48	0.72875	0.157631
-1.465	0.645	0.164644
-1.545	0.70875	0.187331
-1.5025	0.81	0.151569
-1.4475	0.69125	0.160669
-1.5	0.73625	0.1631
-1.4825	0.7725	0.152431
-1.58	0.80875	0.148394
-1.6425	0.855	0.148119
-1.545	0.795	0.154712
-1.5875	0.8225	0.144037
-1.48	0.6925	0.153925
-1.66	0.8775	0.15775
-1.475	0.7525	0.156625
-1.6575	0.87875	0.155794
-1.51	0.7475	0.147331
-1.54	0.81375	0.147944
-1.4775	0.79	0.147819
-1.465	0.75375	0.164506
-1.3725	0.7025	0.160206
-1.4725	0.77875	0.162344
-1.47	0.735	0.159881
-1.5	0.7475	0.155888
-1.4625	0.67625	0.185594
-1.475	0.71625	0.151963
-1.5825	0.82125	0.1545
-1.4425	0.71	0.148531
-1.47	0.67625	0.175431
-1.59	0.8325	0.151581
-1.4025	0.74	0.15135
-1.4625	0.75875	0.155419
-1.6075	0.8375	0.136094
-1.545	0.76875	0.161106
-1.5725	0.78375	0.150013
-1.5275	0.83375	0.144575
-1.4975	0.7275	0.145981
-1.575	0.76375	0.162631
-1.53	0.79875	0.146187
-1.5425	0.77125	0.142937
-1.4725	0.74125	0.151675
-1.535	0.74875	0.161775
-1.4875	0.70625	0.1677
-1.635	0.86125	0.1587
-1.49	0.775	0.160906
-1.5225	0.7875	0.156375
-1.5825	0.805	0.155325
-1.4025	0.70125	0.171619
-1.58	0.8425	0.148906
-1.505	0.8125	0.162325
-1.5225	0.7875	0.1549
-1.5925	0.8625	0.149325
-1.4575	0.76625	0.150019
-1.5825	0.805	0.150431
-1.6425	0.86	0.159525
-1.625	0.87375	0.151994
-1.5	0.75	0.154856
-1.5625	0.83125	0.148706
-1.6825	0.86375	0.1478
-1.615	0.8525	0.140906
-1.4225	0.655	0.163525
-1.4825	0.75875	0.181619
-1.5425	0.835	0.169469
-1.3875	0.70625	0.138706
-1.5825	0.8125	0.152831
-1.5325	0.755	0.15325
-1.495	0.7925	0.164163
-1.585	0.835	0.152063
-1.5325	0.8225	0.140987
-1.475	0.76	0.156275
-1.5375	0.81	0.140838
-1.6025	0.86625	0.153669
-1.515	0.75	0.150469
-1.6625	0.885	0.159775
-1.7275	0.88625	0.132681
-1.6575	0.875	0.153844
-1.5525	0.80625	0.142706
-1.58	0.82625	0.146137
-1.5375	0.72875	0.162137
-1.38	0.5	0.177281
-1.5125	0.65125	0.180619
-1.61	0.85625	0.16145
-1.5325	0.81625	0.135925
-1.4725	0.785	0.150031
-1.435	0.80375	0.138819
-1.4875	0.7775	0.151444
-1.5275	0.82375	0.142981
-1.615	0.85125	0.143562
-1.5825	0.83375	0.14135
-1.47	0.7	0.156556
-1.5275	0.815	0.160037
-1.49	0.7825	0.169213
-1.535	0.79	0.155125
-1.545	0.7725	0.145313
-1.3625	0.63375	0.158219
-1.5625	0.84	0.145606
-1.5275	0.795	0.135375
-1.5275	0.73375	0.172669
-1.5375	0.795	0.149156
-1.595	0.78375	0.163394
-1.455	0.67125	0.161925
-1.52	0.76375	0.144788
-1.4575	0.73125	0.176187
-1.5175	0.81875	0.159838
-1.51	0.72875	0.145937
-1.5225	0.64625	0.173425
-1.585	0.8275	0.162206
-1.495	0.77625	0.146106
-1.59	0.79375	0.146037
-1.5025	0.6325	0.166719
-1.4425	0.72125	0.189206
-1.4675	0.795	0.169794
-1.5825	0.82875	0.132231
-1.5325	0.7075	0.159006
-1.5175	0.75625	0.157681
-1.5475	0.75	0.184594
-1.465	0.7775	0.156925
-1.525	0.7175	0.165012
-1.5975	0.84125	0.174356
-1.4325	0.75	0.152119
-1.53	0.77625	0.147231
-1.52	0.80875	0.181988
-1.46	0.75625	0.1571
-1.5075	0.75375	0.153237
-1.425	0.63125	0.20315
-1.6125	0.86875	0.15445
-1.48	0.79125	0.15195
-1.56	0.80625	0.160237
-1.5125	0.78625	0.157587
-1.5725	0.82625	0.144762
-1.5775	0.7975	0.140481
-1.46	0.79125	0.147969
-1.5525	0.7925	0.150006
-1.535	0.7975	0.15365
-1.5025	0.78375	0.158256
-1.5525	0.82125	0.1475
-1.5025	0.80625	0.14785
-1.4675	0.57875	0.1639
-1.52	0.66375	0.179275
-1.44	0.5875	0.185606
-1.3725	0.5025	0.189825
-1.5375	0.7775	0.1845
-1.6425	0.87375	0.150281
-1.635	0.86875	0.143087
-1.5275	0.66875	0.1739
-1.4225	0.69	0.172581
-1.59	0.8525	0.176012
-1.51	0.68	0.158675
-1.6325	0.8675	0.159
-1.585	0.81875	0.148094
-1.5175	0.80875	0.156688
-1.595	0.80625	0.1423
-1.555	0.81375	0.15855
-1.5375	0.7425	0.160981
-1.4975	0.6825	0.1697
-1.4775	0.57875	0.191219
-1.64	0.855	0.164544
-1.545	0.8275	0.1404
-1.47	0.8	0.145575
-1.56	0.8475	0.145125
-1.5125	0.79125	0.149431
-1.56	0.80375	0.155575
-1.6475	0.87	0.149331
-1.4925	0.7425	0.154337
-1.505	0.7325	0.16475
-1.37	0.56625	0.166506
-1.5125	0.80625	0.155825
-1.675	0.8825	0.142444
-1.545	0.82125	0.159219
-1.5225	0.76125	0.168375
-1.5975	0.7225	0.183106
-1.6475	0.86625	0.173719
-1.3925	0.3825	0.192531
-1.35	0.1125	0.208475
-1.3525	-0.1375	0.199225
-1.3125	0.09875	0.217744
-1.4375	0.17375	0.212038
-1.39	0.2625	0.206981
-1.32	0.40875	0.198119
-1.48	0.71875	0.187775
-1.4425	0.60125	0.176038
-1.4225	0.6575	0.189919
-1.5775	0.83375	0.144944
-1.555	0.7975	0.142769
-1.5175	0.82375	0.156206
-1.46	0.585	0.161544
-1.455	0.67125	0.169819
-1.58	0.85375	0.155337
-1.585	0.8425	0.153581
-1.6125	0.8375	0.159013
-1.5025	0.7825	0.152188
-1.5375	0.73625	0.161906
-1.605	0.8675	0.155469
-1.625	0.8525	0.146363
-1.5175	0.71125	0.148131
-1.4425	0.75	0.162456
-1.48	0.7625	0.164463
-1.5025	0.71875	0.161144
-1.515	0.81375	0.159513
-1.5675	0.825	0.148206
-1.4625	0.76875	0.152669
-1.585	0.81125	0.153912
-1.545	0.8025	0.138494
-1.54	0.795	0.17105
-1.49	0.7725	0.160612
-1.4625	0.7175	0.16275
-1.5675	0.79375	0.159156
-1.48	0.7625	0.141631
-1.5825	0.775	0.155375
-1.58	0.82375	0.144644
-1.4525	0.65875	0.187463
-1.3625	0.65625	0.170875
-1.4675	0.7775	0.164269
-1.56	0.81875	0.152131
-1.5025	0.80375	0.14135
-1.5225	0.745	0.158919
-1.5525	0.78625	0.162156
-1.425	0.73125	0.149063
-1.52	0.75625	0.164775
-1.44	0.74	0.159931
-1.475	0.75625	0.148406
-1.555	0.77	0.161106
-1.4525	0.70125	0.162481
-1.505	0.81375	0.169175
-1.5	0.79	0.151081
-1.46	0.7525	0.142175
-1.5875	0.85	0.160063
-1.43	0.7375	0.159362
-1.4975	0.76	0.162775
-1.505	0.77625	0.152094
-1.3925	0.76125	0.15915
-1.525	0.795	0.152406
-1.6475	0.85875	0.133119
-1.415	0.73125	0.139725
-1.52	0.78	0.154006
-1.5625	0.79875	0.159769
-1.6075	0.845	0.158881
-1.585	0.8425	0.145162
-1.4625	0.71625	0.146669
-1.4925	0.75125	0.152612
-1.6025	0.87125	0.147
-1.5425	0.62875	0.151025
-1.6375	0.85125	0.144213
-1.51	0.765	0.150431
-1.5375	0.78375	0.159869
-1.5825	0.81625	0.150538
-1.605	0.83375	0.161013
-1.485	0.75375	0.152375
-1.5525	0.825	0.156406
-1.545	0.80375	0.156344
-1.5025	0.7875	0.157131
-1.4775	0.725	0.157688
-1.5375	0.8175	0.162425
-1.545	0.78875	0.156431
-1.4625	0.7525	0.140294
-1.5125	0.78	0.160587
-1.4525	0.7375	0.1598
-1.47	0.75625	0.145319
-1.49	0.645	0.174031
-1.4775	0.6625	0.176788
-1.5825	0.8175	0.168662
-1.5075	0.8	0.164763
-1.5475	0.82	0.1571
-1.485	0.73125	0.160419
-1.52	0.81	0.151244
-1.46	0.73125	0.162994
-1.39	0.7075	0.163081
-1.3875	0.6	0.173113
-1.4925	0.795	0.174425
-1.49	0.78625	0.151894
-1.4575	0.73875	0.161337
-1.55	0.82125	0.150113
-1.5275	0.7625	0.157506
-1.5675	0.835	0.150838
-1.445	0.73125	0.154056
-1.5675	0.8325	0.165769
-1.5075	0.80375	0.148769
-1.51	0.7475	0.163269
-1.4	0.64125	0.179069
-1.53	0.69875	0.179975
-1.445	0.68625	0.164013
-1.49	0.78125	0.165612
-1.63	0.8375	0.152656
-1.68	0.8825	0.1414
-1.4775	0.745	0.151325
-1.5975	0.8125	0.141925
-1.535	0.8025	0.1623
-1.4575	0.71625	0.147144
-1.575	0.83	0.152619
-1.4975	0.74875	0.146531
-1.5975	0.8175	0.155081
-1.5575	0.81375	0.162769
-1.515	0.77375	0.141113
-1.56	0.80875	0.14825
-1.5225	0.80375	0.155262
-1.5675	0.8025	0.157319
-1.585	0.8525	0.147287
-1.4475	0.69375	0.175344
-1.4325	0.6825	0.172581
-1.4875	0.7975	0.157988
-1.5	0.75125	0.147381
-1.61	0.8475	0.151031
-1.6025	0.8025	0.146313
-1.51	0.7475	0.163362
-1.4925	0.6575	0.173988
-1.3875	0.63375	0.181619
-1.4	0.69875	0.178513
-1.4825	0.745	0.163081
-1.425	0.5175	0.17575
-1.45	0.6275	0.182063
-1.455	0.64625	0.167631
-1.4275	0.73875	0.164875
-1.5425	0.81	0.153656
-1.6075	0.83375	0.151956
-1.545	0.83625	0.14055
-1.595	0.84125	0.137475
-1.56	0.84375	0.161388
-1.575	0.765	0.145331
-1.4925	0.7	0.164425
-1.47	0.705	0.160487
-1.455	0.725	0.1574
-1.5975	0.8525	0.143775
-1.56	0.84625	0.147894
-1.545	0.75625	0.147187
-1.55	0.78625	0.16785
-1.3475	0.195	0.178506
-1.5	0.615	0.19265
-1.3975	0.54625	0.184706
-1.55	0.8425	0.155631
-1.5425	0.815	0.140825
-1.5425	0.80625	0.148969
-1.5425	0.76	0.149194
-1.43	0.455	0.181588
-1.5325	0.77875	0.174856
-1.4625	0.75125	0.156612
-1.465	0.6925	0.174681
-1.4825	0.76375	0.165481
-1.5475	0.79875	0.154787
-1.4425	0.73625	0.168175
-1.5225	0.80625	0.1556
-1.5525	0.8225	0.149919
-1.5175	0.76	0.1512
-1.6125	0.8575	0.152975
-1.6025	0.8525	0.1428
-1.515	0.765	0.174575
-1.5075	0.76375	0.152244
-1.5325	0.80125	0.165063
-1.42	0.74	0.151669
-1.4325	0.5975	0.1632
-1.585	0.8225	0.168525
-1.5075	0.77	0.15565
-1.5475	0.81625	0.162206
-1.585	0.82875	0.154413
-1.465	0.76875	0.1672
-1.6625	0.88	0.141119
-1.665	0.86375	0.153256
-1.425	0.74	0.146231
-1.53	0.785	0.171938
-1.4125	0.77125	0.142794
-1.455	0.7225	0.155456
-1.56	0.81375	0.156306
-1.4125	0.7425	0.159844
-1.505	0.78375	0.161306
-1.515	0.80625	0.158537
-1.545	0.8225	0.137481
-1.5225	0.7975	0.142562
-1.5075	0.72875	0.150544
-1.625	0.85875	0.14495
-1.5625	0.83125	0.1447
-1.535	0.80375	0.14715
-1.4775	0.76125	0.169013
-1.67	0.8875	0.154181
-1.6325	0.8625	0.150013
-1.58	0.83375	0.154519
-1.4075	0.6625	0.167069
-1.4725	0.79375	0.161519
-1.5275	0.74875	0.155113
-1.5425	0.815	0.151869
-1.4475	0.6225	0.170475
-1.4925	0.685	0.175175
-1.605	0.855	0.156587
-1.53	0.70875	0.161806
-1.5875	0.76875	0.167112
-1.4725	0.66875	0.159362
-1.48	0.71125	0.176788
-1.5375	0.8	0.155569
-1.5025	0.78875	0.151656
-1.55	0.7825	0.161156
-1.4375	0.71625	0.165406
-1.5775	0.78875	0.166563
-1.5775	0.84	0.161969
-1.55	0.8	0.158475
-1.53	0.73625	0.188931
-1.5525	0.83125	0.155738
-1.4975	0.6525	0.171844
-1.625	0.875	0.148888
-1.535	0.78875	0.156981
-1.54	0.82125	0.154487
-1.54	0.78875	0.15415
-1.4925	0.79375	0.149225
-1.455	0.71875	0.152225
-1.4525	0.7125	0.174781
-1.545	0.7325	0.1729
-1.5025	0.68625	0.185431
-1.3725	0.60875	0.183475
-1.465	0.735	0.159031
-1.46	0.7775	0.16185
-1.43	0.74375	0.158156
-1.5375	0.7225	0.152906
-1.45	0.74875	0.168369
-1.3775	0.50625	0.185125
-1.3725	0.4425	0.196369
-1.3625	0.4725	0.201425
-1.305	0.13875	0.203156
-1.3475	0.08	0.215869
-1.3775	0.355	0.230175
-1.3775	0.4425	0.196687
-1.4375	0.5125	0.197925
-1.4075	0.54125	0.193694
-1.54	0.67375	0.186413
-1.56	0.6925	0.161006
-1.55	0.835	0.157512
-1.5975	0.81125	0.141994
-1.5875	0.82625	0.157725
-1.3575	0.595	0.157769
-1.53	0.795	0.1611
-1.6225	0.83875	0.149906
-1.505	0.78	0.157481
-1.49	0.7275	0.168925
-1.5	0.76125	0.166406
-1.4025	0.6825	0.157256
-1.465	0.7375	0.184213
-1.515	0.785	0.163087
-1.525	0.7725	0.146925
-1.355	0.63875	0.184894
-1.5	0.7875	0.163344
-1.355	0.51125	0.154494
-1.49	0.7525	0.202881
-1.6425	0.8675	0.153938
-1.59	0.77625	0.150194
-1.64	0.84875	0.155913
-1.525	0.70625	0.173487
-1.4775	0.6575	0.174931
-1.4125	0.63375	0.184519
-1.48	0.77375	0.152775
-1.5575	0.83375	0.141887
-1.4525	0.57875	0.187787
-1.445	0.54375	0.179088
-1.3775	0.55875	0.18825
-1.505	0.60125	0.180812
-1.435	0.63625	0.190212
-1.4725	0.76875	0.162525
-1.4725	0.66375	0.168875
-1.32	0.58375	0.177162
-1.6275	0.8725	0.162219
-1.6475	0.87375	0.156481
-1.5	0.75375	0.148638
-1.4675	0.74	0.168906
-1.62	0.81	0.16525
-1.4575	0.745	0.152175
-1.54	0.785	0.164838
-1.5475	0.82	0.138575
-1.5425	0.8075	0.144525
-1.485	0.77125	0.161544
-1.545	0.8175	0.152081
-1.5225	0.77375	0.157094
-1.5625	0.81125	0.145538
-1.435	0.7275	0.168744
-1.4125	0.5975	0.159637
-1.4075	0.71	0.181613
-1.5575	0.75375	0.161506
-1.33	0.535	0.192231
-1.465	0.585	0.186737
-1.3725	0.56125	0.201181
-1.2575	0.455	0.203206
-1.5825	0.84375	0.154506
-1.5625	0.84125	0.1469
-1.55	0.8	0.141156
-1.585	0.83	0.161863
-1.6125	0.83625	0.146369
-1.67	0.86875	0.1388
-1.4975	0.73625	0.153888
-1.525	0.7825	0.182044
-1.415	0.6975	0.14475
-1.55	0.81875	0.153969
-1.5225	0.82375	0.145213
-1.495	0.7925	0.147994
-1.575	0.8275	0.155938
-1.5275	0.7975	0.153788
-1.5025	0.68375	0.175306
-1.54	0.65625	0.177475
-1.415	0.54	0.176356
-1.41	0.2125	0.1944
-1.3175	0.19625	0.219431
-1.4625	0.15125	0.205563
-1.365	0.42375	0.201425
-1.435	0.65	0.197969
-1.575	0.85375	0.156369
-1.5625	0.83625	0.14905
-1.54	0.79875	0.1576
-1.5475	0.78625	0.148625
-1.465	0.75375	0.154475
-1.5425	0.81875	0.148775
-1.505	0.72625	0.156387
-1.555	0.72125	0.181788
-1.5375	0.80625	0.170112
-1.565	0.8225	0.151444
-1.565	0.82125	0.142456
-1.4875	0.575	0.187569
-1.6025	0.85125	0.164006
-1.5825	0.8375	0.134869
-1.6325	0.87375	0.167644
-1.4825	0.76625	0.15965
-1.545	0.81875	0.145125
-1.4375	0.73875	0.15695
-1.62	0.82375	0.158438
-1.5175	0.76	0.154844
-1.5875	0.805	0.159037
-1.5125	0.70375	0.149419
-1.555	0.75875	0.1677
