# nm = 1024 nc = 100 len = 40 extf = 0 beta = 0.449
#energy 	magnetization 	acceptance
-1.475	-0.7775	0.163375
-1.59	-0.84	0.16985
-1.4425	-0.67875	0.169606
-1.495	-0.7575	0.176744
-1.5325	-0.785	0.156537
-1.48	-0.69875	0.169594
-1.5025	-0.7425	0.176844
-1.55	-0.8075	0.163313
-1.4875	-0.76	0.157875
-1.5375	-0.82	0.170538
-1.525	-0.77	0.163675
-1.4425	-0.6675	0.155062
-1.5025	-0.79625	0.169556
-1.59	-0.86625	0.167413
-1.4625	-0.6475	0.171169
-1.4675	-0.6575	0.170987
-1.58	-0.81875	0.164244
-1.7075	-0.8825	0.156706
-1.5375	-0.7725	0.1554
-1.35	-0.4975	0.174387
-1.2425	-0.36375	0.207206
-1.535	-0.8125	0.177506
-1.6125	-0.8325	0.159812
-1.455	-0.795	0.152638
-1.625	-0.86625	0.138869
-1.46	-0.68125	0.161612
-1.5825	-0.8225	0.178181
-1.525	-0.82625	0.151056
-1.555	-0.82375	0.153537
-1.535	-0.83875	0.152087
-1.47	-0.7275	0.149119
-1.4	-0.6975	0.16545
-1.5325	-0.77875	0.158944
-1.4325	-0.70875	0.176112
-1.4775	-0.71375	0.1784
-1.5575	-0.83875	0.166788
-1.4975	-0.755	0.151444
-1.5325	-0.77125	0.151806
-1.53	-0.8	0.151406
-1.425	-0.705	0.15975
-1.37	-0.4	0.186062
-1.5125	-0.695	0.18965
-1.4275	-0.53875	0.188719
-1.4325	-0.595	0.184106
-1.3675	-0.3525	0.209513
-1.44	-0.37375	0.216856
-1.42	-0.3425	0.209281
-1.3825	-0.18875	0.210769
-1.35	-0.04625	0.216737
-1.4075	0.315	0.215719
-1.3625	0.0575	0.2194
-1.425	0.05875	0.206431
-1.275	0.265	0.228019
-1.46	0.5225	0.225725
-1.4075	0.46625	0.211569
-1.5425	0.81375	0.192812
-1.53	0.815	0.157506
-1.61	0.85375	0.146531
-1.5525	0.80375	0.156125
-1.5475	0.8275	0.148919
-1.495	0.77	0.149187
-1.4925	0.78	0.148788
-1.5075	0.7475	0.16245
-1.5025	0.42625	0.183056
-1.405	0.6425	0.187331
-1.4675	0.64125	0.176619
-1.51	0.72	0.182369
-1.45	0.77375	0.163919
-1.6675	0.865	0.159331
-1.545	0.805	0.168563
-1.62	0.81875	0.154206
-1.495	0.775	0.181131
-1.3925	0.69125	0.174069
-1.485	0.73875	0.177387
-1.4775	0.78	0.165931
-1.4225	0.71125	0.153894
-1.505	0.70875	0.179062
-1.54	0.81875	0.155787
-1.4275	0.63375	0.156713
-1.5025	0.73875	0.1832
-1.5025	0.77375	0.160637
-1.54	0.745	0.160094
-1.6575	0.86875	0.158281
-1.405	0.6625	0.170944
-1.615	0.86125	0.171319
-1.5175	0.75875	0.142238
-1.5	0.83	0.154119
-1.6	0.835	0.135563
-1.4175	0.74875	0.151669
-1.41	0.71	0.161394
-1.4925	0.73125	0.149731
-1.44	0.58875	0.1589
-1.635	0.86125	0.156325
-1.4575	0.69375	0.166988
-1.4425	0.6825	0.182219
-1.4825	0.74875	0.162831
-1.495	0.79375	0.144475
-1.38	0.66875	0.160037
-1.5275	0.7375	0.164719
-1.41	0.67875	0.199706
-1.58	0.8325	0.151519
-1.605	0.85875	0.147481
-1.5825	0.715	0.156794
-1.4975	0.78625	0.155281
-1.545	0.82625	0.139338
-1.3325	0.5625	0.164081
-1.425	0.7225	0.168775
-1.5275	0.76	0.164075
-1.555	0.82625	0.146706
-1.595	0.86125	0.147287
-1.505	0.80875	0.1469
-1.48	0.75625	0.16275
-1.4925	0.8075	0.150569
-1.525	0.8075	0.167325
-1.4875	0.635	0.159825
-1.5125	0.79625	0.177669
-1.49	0.7575	0.164006
-1.455	0.70625	0.158906
-1.48	0.755	0.165456
-1.4425	0.5675	0.172437
-1.4375	0.68375	0.174519
-1.5625	0.79375	0.157963
-1.485	0.75375	0.176487
-1.5325	0.78	0.160744
-1.4525	0.7325	0.165387
-1.63	0.88	0.164725
-1.58	0.8175	0.1428
-1.495	0.65375	0.164381
-1.48	0.79125	0.160862
-1.5425	0.7725	0.157444
-1.4375	0.73625	0.163069
-1.5475	0.7875	0.161819
-1.555	0.7875	0.162925
-1.4325	0.62375	0.176206
-1.53	0.76	0.163631
-1.5525	0.82125	0.164519
-1.3675	0.565	0.168869
-1.3825	0.5425	0.18845
-1.405	0.515	0.20195
-1.4225	0.61875	0.197044
-1.505	0.75	0.184769
-1.5125	0.73	0.173975
-1.5675	0.82875	0.165919
-1.56	0.81	0.152706
-1.48	0.735	0.188738
-1.4725	0.69875	0.176081
-1.6075	0.84875	0.154213
-1.4275	0.71125	0.148025
-1.51	0.73625	0.185087
-1.51	0.62625	0.1774
-1.54	0.62	0.179506
-1.59	0.84875	0.173594
-1.5275	0.785	0.141669
-1.45	0.66625	0.162131
-1.3875	0.70375	0.172413
-1.63	0.85625	0.152938
-1.5675	0.8325	0.158456
-1.445	0.7425	0.17125
-1.59	0.83	0.142875
-1.5375	0.7725	0.151575
-1.5475	0.80125	0.151906
-1.5375	0.79375	0.156662
-1.635	0.86125	0.154988
-1.57	0.835	0.155419
-1.6275	0.865	0.154175
-1.6675	0.87625	0.148531
-1.6325	0.8675	0.143169
-1.665	0.88875	0.149844
-1.505	0.77625	0.151575
-1.5425	0.73125	0.167038
-1.505	0.78125	0.16285
-1.4825	0.58375	0.158862
-1.61	0.845	0.168944
-1.565	0.8125	0.14855
-1.5075	0.73625	0.161181
-1.39	0.72625	0.171388
-1.5725	0.7825	0.172581
-1.5375	0.7	0.167075
-1.4625	0.75625	0.175131
-1.525	0.79375	0.1717
-1.5075	0.8075	0.141419
-1.5525	0.8175	0.141438
-1.5425	0.8025	0.168962
-1.455	0.73375	0.157494
-1.515	0.78125	0.147825
-1.5475	0.7825	0.154931
-1.4625	0.67875	0.152769
-1.435	0.4175	0.185894
-1.4925	0.4525	0.200387
-1.565	0.82375	0.174581
-1.4575	0.72125	0.153562
-1.5275	0.82	0.164819
-1.4275	0.6875	0.166375
-1.6225	0.8475	0.157137
-1.4525	0.735	0.164713
-1.3775	0.6575	0.176475
-1.45	0.57	0.184888
-1.3525	0.63	0.19475
-1.3775	0.70375	0.179556
-1.4925	0.7875	0.149844
-1.4825	0.68125	0.160019
-1.33	0.64375	0.170225
-1.5025	0.69875	0.184575
-1.625	0.835	0.158331
-1.54	0.63375	0.174656
-1.39	0.67625	0.173588
-1.37	0.52	0.202469
-1.4975	0.72125	0.181644
-1.545	0.77125	0.177462
-1.6	0.83875	0.14935
-1.665	0.885	0.148306
-1.59	0.79375	0.143706
-1.535	0.8325	0.158081
-1.58	0.84125	0.155256
-1.5075	0.815	0.153669
-1.4975	0.795	0.160625
-1.6	0.8	0.153512
-1.35	0.6525	0.1622
-1.545	0.82375	0.178719
-1.5725	0.80375	0.154888
-1.5875	0.8325	0.144594
-1.54	0.7825	0.155688
-1.5475	0.81875	0.161056
-1.55	0.81375	0.1563
-1.555	0.82625	0.1727
-1.4725	0.71	0.157144
-1.4025	0.56875	0.179869
-1.4775	0.685	0.192319
-1.5275	0.75875	0.170569
-1.5525	0.80875	0.156888
-1.67	0.89625	0.1495
-1.5375	0.805	0.151556
-1.3875	0.66375	0.164331
-1.49	0.78375	0.16205
-1.5575	0.84375	0.1546
-1.4725	0.7825	0.159331
-1.595	0.85	0.1426
-1.49	0.72875	0.153969
-1.58	0.84625	0.15605
-1.59	0.81125	0.157137
-1.645	0.87	0.158719
-1.4975	0.765	0.157087
-1.585	0.8325	0.152113
-1.545	0.8125	0.171675
-1.62	0.87375	0.149881
-1.47	0.75	0.155731
-1.39	0.6925	0.15155
-1.6125	0.84875	0.163244
-1.5625	0.835	0.148531
-1.5275	0.7775	0.1425
-1.4625	0.71	0.158738
-1.5325	0.79125	0.172769
-1.4125	0.7425	0.165569
-1.565	0.82375	0.152906
-1.58	0.84875	0.154175
-1.58	0.84875	0.1511
-1.6025	0.85375	0.143962
-1.5375	0.795	0.146519
-1.505	0.7325	0.1782
-1.555	0.805	0.166238
-1.4475	0.67375	0.158006
-1.435	0.69125	0.17585
-1.5425	0.81625	0.175588
-1.5375	0.69125	0.1742
-1.5625	0.83875	0.158875
-1.49	0.72	0.157181
-1.5025	0.71125	0.177994
-1.5	0.765	0.170231
-1.47	0.71125	0.170406
-1.5125	0.81	0.169006
-1.405	0.71125	0.153244
-1.525	0.80375	0.154287
-1.525	0.82125	0.151987
-1.565	0.82875	0.1558
-1.475	0.74375	0.1603
-1.5025	0.78875	0.156562
-1.5125	0.8075	0.161444
-1.4675	0.73875	0.163269
-1.535	0.795	0.169131
-1.5175	0.74875	0.154344
-1.49	0.66	0.166606
-1.375	0.7175	0.15495
-1.5425	0.77125	0.153481
-1.39	0.65625	0.179175
-1.4475	0.54625	0.1816
-1.46	0.53375	0.188125
-1.3975	0.36625	0.19745
-1.5325	0.66875	0.20605
-1.53	0.77875	0.170075
-1.43	0.75625	0.174825
-1.4275	0.67375	0.157087
-1.5	0.73	0.189356
-1.49	0.67125	0.155244
-1.4475	0.76875	0.184963
-1.575	0.825	0.168406
-1.48	0.765	0.1549
-1.4	0.675	0.157612
-1.5175	0.79	0.184088
-1.5125	0.68	0.16985
-1.5175	0.8175	0.1679
-1.435	0.73375	0.159844
-1.43	0.69375	0.172313
-1.5225	0.7875	0.156756
-1.365	0.655	0.177
-1.5325	0.8325	0.153912
-1.595	0.85875	0.146869
-1.5875	0.78875	0.158663
-1.4775	0.7775	0.153319
-1.6375	0.855	0.143425
-1.525	0.765	0.154363
-1.435	0.62	0.18825
-1.5375	0.7975	0.172587
-1.5075	0.76625	0.159906
-1.62	0.86375	0.150137
-1.5425	0.815	0.156406
-1.525	0.7675	0.158275
-1.4825	0.78	0.150125
-1.46	0.72875	0.165619
-1.49	0.76125	0.147025
-1.5975	0.82625	0.142512
-1.5175	0.75	0.152906
-1.5075	0.8025	0.1762
-1.54	0.76875	0.159406
-1.5225	0.7225	0.161706
-1.4825	0.71125	0.172094
-1.6	0.84	0.172869
-1.5175	0.7875	0.150438
-1.475	0.61125	0.167431
-1.5	0.665	0.171494
-1.5825	0.80125	0.177344
-1.5725	0.84875	0.14885
-1.505	0.77875	0.169937
-1.4925	0.775	0.164794
-1.5975	0.85	0.157688
-1.5075	0.75625	0.158231
-1.605	0.83625	0.148313
-1.5725	0.81625	0.150562
-1.5625	0.82125	0.14625
-1.4825	0.735	0.175081
-1.495	0.64875	0.184681
-1.5175	0.77875	0.17335
-1.5075	0.78	0.155431
-1.4225	0.6925	0.1476
-1.5175	0.76375	0.172719
-1.4775	0.68125	0.169675
-1.5075	0.74125	0.162838
-1.4875	0.74625	0.162237
-1.64	0.865	0.152281
-1.4875	0.74125	0.157019
-1.555	0.80875	0.147512
-1.455	0.68875	0.164213
-1.54	0.85	0.168106
-1.5575	0.79625	0.145569
-1.58	0.81375	0.157037
-1.55	0.80375	0.14715
-1.4825	0.73875	0.16735
-1.54	0.815	0.184594
-1.4775	0.7325	0.152487
-1.55	0.83125	0.161656
-1.4625	0.8	0.151806
-1.5425	0.81375	0.134444
-1.4725	0.74375	0.16385
-1.545	0.815	0.150344
-1.38	0.695	0.172088
-1.52	0.7575	0.156725
-1.5125	0.81625	0.164281
-1.475	0.7	0.165569
-1.46	0.73375	0.166044
-1.6225	0.83875	0.159875
-1.6075	0.84125	0.150813
-1.5275	0.805	0.160569
-1.6	0.855	0.140075
-1.685	0.8975	0.147838
-1.6175	0.8525	0.156375
-1.565	0.825	0.15145
-1.5	0.7875	0.152975
-1.4175	0.69125	0.163006
-1.5925	0.8075	0.158206
-1.5	0.78	0.152863
-1.5625	0.82375	0.151331
-1.43	0.68875	0.169937
-1.5575	0.79125	0.162013
-1.5275	0.80125	0.158413
-1.3475	0.64125	0.169237
-1.4825	0.76	0.171031
-1.49	0.8025	0.159612
-1.655	0.8725	0.157675
-1.5025	0.805	0.141687
-1.51	0.78	0.153875
-1.4875	0.73125	0.153594
-1.3275	0.53125	0.175125
-1.4925	0.695	0.182006
-1.7025	0.875	0.157863
-1.5625	0.72875	0.149231
-1.545	0.78375	0.155113
-1.5275	0.75375	0.183675
-1.6325	0.83375	0.1506
-1.4175	0.6575	0.167406
-1.32	0.45125	0.186756
-1.33	0.3625	0.207744
-1.3175	0.51375	0.211131
-1.5575	0.8	0.178419
-1.505	0.78875	0.164256
-1.465	0.73	0.154581
-1.4725	0.69125	0.162956
-1.395	0.6775	0.172369
-1.63	0.8425	0.152788
-1.4925	0.7075	0.156675
-1.5425	0.785	0.18145
-1.5175	0.75625	0.164831
-1.6275	0.88125	0.144738
-1.44	0.64125	0.1657
-1.49	0.75125	0.161325
-1.585	0.83375	0.157925
-1.41	0.71375	0.16265
-1.5875	0.81	0.146131
-1.45	0.77125	0.163031
-1.46	0.75375	0.166025
-1.6625	0.8725	0.152819
-1.4575	0.695	0.166425
-1.64	0.87125	0.150519
-1.545	0.70375	0.162325
-1.4725	0.73375	0.170813
-1.53	0.81	0.159194
-1.5025	0.7125	0.16445
-1.505	0.71625	0.166944
-1.4125	0.565	0.173794
-1.4025	0.48125	0.184694
-1.5125	0.65125	0.184913
-1.46	0.55375	0.187362
-1.3775	0.6625	0.193069
-1.5425	0.8125	0.15665
-1.48	0.7175	0.150487
-1.5575	0.82375	0.171206
-1.62	0.85625	0.147275
-1.4725	0.65625	0.160225
-1.455	0.7675	0.174106
-1.515	0.77	0.168275
-1.58	0.85	0.1469
-1.425	0.74	0.150675
-1.605	0.84375	0.147469
-1.2675	0.41	0.162894
-1.385	0.50375	0.200181
-1.4475	0.59125	0.199175
-1.5425	0.8075	0.169806
-1.465	0.69875	0.171781
-1.5425	0.775	0.165931
-1.4675	0.7425	0.1599
-1.5175	0.70125	0.172356
-1.44	0.7525	0.161056
-1.55	0.8025	0.154313
-1.5025	0.69875	0.152519
-1.575	0.825	0.154494
-1.495	0.77125	0.161944
-1.455	0.75125	0.154888
-1.5875	0.8175	0.161894
-1.46	0.765	0.147225
-1.4925	0.79875	0.164169
-1.535	0.80125	0.144712
-1.5425	0.79625	0.156713
-1.3725	0.70375	0.167213
-1.4675	0.60625	0.174525
-1.605	0.84	0.159106
-1.475	0.7975	0.150588
-1.5775	0.82	0.169088
-1.505	0.795	0.158
-1.4775	0.66625	0.176906
-1.5325	0.755	0.182569
-1.5125	0.78875	0.163394
-1.56	0.8175	0.177956
-1.57	0.8075	0.153025
-1.57	0.825	0.150212
-1.5025	0.73	0.165963
-1.4175	0.5825	0.1783
-1.5575	0.81	0.1758
-1.51	0.7325	0.163225
-1.6475	0.865	0.169462
-1.52	0.75375	0.154156
-1.3875	0.6075	0.179881
-1.6125	0.8375	0.180163
-1.495	0.7725	0.159375
-1.505	0.76	0.16585
-1.53	0.79	0.163
-1.5125	0.76625	0.157581
-1.615	0.7975	0.144469
-1.58	0.8525	0.1459
-1.625	0.8475	0.150538
-1.515	0.8025	0.1456
-1.565	0.84625	0.144694
-1.6	0.845	0.159881
-1.5075	0.7775	0.133738
-1.4025	0.67875	0.173344
-1.5225	0.7775	0.175669
-1.53	0.74375	0.180481
-1.4525	0.72125	0.165637
-1.625	0.84625	0.162288
-1.62	0.85125	0.1518
-1.6225	0.835	0.160294
-1.585	0.83625	0.156244
-1.5925	0.8475	0.151631
-1.5475	0.8325	0.141175
-1.4625	0.6375	0.164438
-1.49	0.60875	0.194781
-1.6225	0.845	0.161294
-1.465	0.76375	0.168881
-1.565	0.81625	0.160637
-1.62	0.825	0.145931
-1.5275	0.79625	0.158169
-1.46	0.73	0.158506
-1.545	0.775	0.163113
-1.5925	0.84625	0.148819
-1.5125	0.68375	0.15525
-1.4025	0.6225	0.188806
-1.3325	0.4625	0.20075
-1.415	0.485	0.189463
-1.385	0.08375	0.204344
-1.3475	0.05875	0.222288
-1.2925	0.40625	0.230938
-1.5725	0.83125	0.174175
-1.4875	0.71875	0.15815
-1.4675	0.69	0.175719
-1.4925	0.75125	0.177806
-1.425	0.63875	0.172563
-1.49	0.68875	0.172662
-1.425	0.51375	0.1951
-1.5125	0.66625	0.17485
-1.5425	0.7725	0.155156
-1.5725	0.8075	0.172125
-1.5025	0.7625	0.167513
-1.5225	0.78625	0.156431
-1.41	0.66875	0.154375
-1.44	0.51875	0.188775
-1.4375	0.52375	0.196862
-1.4875	0.73625	0.18565
-1.3825	0.55875	0.180837
-1.24	0.205	0.220044
-1.38	0.03875	0.229056
-1.305	0.09375	0.22915
-1.3125	-0.05875	0.21145
-1.415	0.02	0.217744
-1.4125	-0.015	0.206025
-1.39	0.03	0.202763
-1.4475	-0.15	0.206575
-1.385	0.02125	0.207994
-1.3675	0.29375	0.207925
-1.42	0.47875	0.203313
-1.5375	0.5025	0.189006
-1.235	0.08875	0.215469
-1.4	0.4475	0.214406
-1.6	0.82625	0.183294
-1.535	0.7975	0.156369
-1.52	0.75	0.15245
-1.4525	0.8	0.16625
-1.585	0.8175	0.169563
-1.4875	0.81125	0.153619
-1.575	0.83875	0.147225
-1.65	0.86375	0.147925
-1.495	0.76625	0.156213
-1.465	0.65625	0.169775
-1.505	0.7825	0.161431
-1.485	0.75	0.173962
-1.555	0.82625	0.151144
-1.46	0.745	0.153006
-1.4925	0.72875	0.172006
-1.3925	0.60125	0.160413
-1.51	0.7275	0.183219
-1.495	0.61625	0.175369
-1.485	0.70625	0.17825
-1.44	0.605	0.189094
-1.4675	0.66	0.1854
-1.4875	0.72875	0.159594
-1.4375	0.71125	0.161575
-1.44	0.765	0.171656
-1.43	0.72875	0.153294
-1.475	0.755	0.164194
-1.44	0.73375	0.160131
-1.505	0.79875	0.169537
-1.455	0.6825	0.174294
-1.535	0.785	0.172075
-1.4575	0.76	0.163562
-1.6025	0.86625	0.155944
-1.535	0.7825	0.147294
-1.4725	0.78375	0.150531
-1.3275	0.50375	0.174687
-1.5775	0.845	0.166819
-1.5575	0.8375	0.153063
-1.5375	0.6975	0.153175
-1.485	0.77375	0.161794
-1.405	0.67375	0.177725
-1.55	0.7775	0.156644
-1.4375	0.54875	0.196544
-1.6075	0.86625	0.176487
-1.53	0.79875	0.151812
-1.56	0.80625	0.171175
-1.5775	0.84625	0.155075
-1.4875	0.74625	0.156075
-1.505	0.81	0.151094
-1.48	0.6625	0.167787
-1.3975	0.7125	0.187463
-1.54	0.82625	0.155544
-1.595	0.69875	0.165387
-1.61	0.79375	0.160513
-1.5275	0.78125	0.146062
-1.505	0.7875	0.164344
-1.51	0.74375	0.153656
-1.445	0.7775	0.170994
-1.42	0.74875	0.149319
-1.3725	0.6475	0.176269
-1.5825	0.82875	0.154294
-1.5325	0.81	0.152481
-1.47	0.76125	0.171406
-1.535	0.77125	0.187537
-1.6475	0.87	0.168044
-1.5225	0.78625	0.148569
-1.5	0.68375	0.156425
-1.6375	0.87	0.168944
-1.5625	0.79125	0.159731
-1.535	0.7675	0.152319
-1.5175	0.75625	0.173394
-1.5975	0.82625	0.1554
-1.4575	0.77125	0.143388
-1.6025	0.85625	0.147587
-1.5925	0.82375	0.1452
-1.66	0.87125	0.14555
-1.51	0.7825	0.151931
-1.475	0.65875	0.178769
-1.475	0.71125	0.173538
-1.4475	0.645	0.166294
-1.53	0.74875	0.177856
-1.4425	0.63	0.190519
-1.67	0.8775	0.16015
-1.5375	0.77125	0.152169
-1.555	0.82375	0.16265
-1.475	0.7375	0.141756
-1.535	0.76875	0.153406
-1.445	0.75375	0.168225
-1.6025	0.82125	0.1811
-1.4925	0.79875	0.156738
-1.4875	0.8075	0.175619
-1.5275	0.77375	0.154994
-1.5	0.7375	0.168306
-1.49	0.7575	0.17845
-1.4325	0.71375	0.186981
-1.545	0.79375	0.172113
-1.455	0.7625	0.146806
-1.52	0.7775	0.157125
-1.475	0.6775	0.1596
-1.42	0.64	0.16555
-1.3925	0.60625	0.174256
-1.5775	0.80875	0.187337
-1.5325	0.735	0.154694
-1.5525	0.77	0.1744
-1.6175	0.86125	0.158331
-1.5575	0.8275	0.142519
-1.4725	0.805	0.160125
-1.54	0.74125	0.171094
-1.545	0.81875	0.15145
-1.48	0.7575	0.161681
-1.5875	0.82375	0.159481
-1.4075	0.555	0.177294
-1.5025	0.70625	0.184719
-1.4925	0.715	0.169069
-1.5875	0.7175	0.18565
-1.4475	0.6375	0.1788
-1.395	0.695	0.1741
-1.4925	0.61375	0.204156
-1.415	0.675	0.176206
-1.44	0.64875	0.175806
-1.51	0.80125	0.163525
-1.56	0.79875	0.164425
-1.5	0.78625	0.164675
-1.5775	0.8375	0.164681
-1.445	0.6975	0.1593
-1.475	0.7725	0.155213
-1.57	0.82625	0.144381
-1.495	0.7	0.154794
-1.44	0.6475	0.163275
-1.4075	0.67125	0.183744
-1.5025	0.71	0.164781
-1.605	0.82	0.157788
-1.435	0.675	0.180837
-1.525	0.76125	0.158106
-1.4725	0.71375	0.149688
-1.62	0.85375	0.145863
-1.485	0.785	0.152681
-1.45	0.7325	0.163238
-1.5575	0.83625	0.152731
-1.525	0.7875	0.144581
-1.63	0.83625	0.156681
-1.4375	0.735	0.160031
-1.38	0.42375	0.181344
-1.5825	0.8325	0.195669
-1.405	0.6175	0.158213
-1.4925	0.7475	0.1836
-1.505	0.775	0.174288
-1.5325	0.835	0.154612
-1.5025	0.75875	0.146831
-1.5775	0.82125	0.163525
-1.5025	0.825	0.164431
-1.49	0.76	0.1511
-1.515	0.78125	0.150994
-1.515	0.74125	0.156562
-1.4575	0.74625	0.149612
-1.54	0.78625	0.159763
-1.5075	0.7325	0.162581
-1.5225	0.82125	0.161406
-1.5525	0.78125	0.172025
-1.4925	0.74125	0.17375
-1.4925	0.75	0.157406
-1.65	0.86375	0.147894
-1.415	0.65625	0.16125
-1.55	0.81125	0.172375
-1.505	0.685	0.172594
-1.62	0.81625	0.183081
-1.54	0.7075	0.169994
-1.54	0.795	0.167675
-1.58	0.795	0.160662
-1.5125	0.6425	0.175738
-1.3725	0.5725	0.176262
-1.6625	0.86875	0.175581
-1.6075	0.8675	0.140931
-1.4825	0.715	0.1562
-1.48	0.78	0.180688
-1.3675	0.67	0.172263
-1.6025	0.855	0.161313
-1.4925	0.75875	0.173094
-1.52	0.77625	0.154938
-1.41	0.69375	0.164913
-1.5325	0.8	0.157944
-1.5425	0.74125	0.179706
-1.5475	0.805	0.155306
-1.505	0.78625	0.153819
-1.485	0.76125	0.147462
-1.59	0.81375	0.1711
-1.51	0.77625	0.160738
-1.46	0.70375	0.162712
-1.46	0.73875	0.155363
-1.5475	0.8025	0.154906
-1.445	0.75	0.160075
-1.48	0.78375	0.175906
-1.6025	0.83625	0.162275
-1.58	0.8425	0.146406
-1.5	0.7625	0.177413
-1.49	0.775	0.165263
-1.4875	0.77	0.154
-1.4625	0.7325	0.151163
-1.475	0.7525	0.1575
-1.6075	0.82875	0.152056
-1.61	0.85875	0.155762
-1.4925	0.75	0.157669
-1.395	0.66625	0.162831
-1.4575	0.7025	0.170144
-1.39	0.55875	0.189069
-1.4525	0.67875	0.192437
-1.505	0.805	0.159781
-1.4375	0.76875	0.153731
-1.4875	0.79375	0.148925
-1.5175	0.81875	0.143363
-1.4575	0.67875	0.166812
-1.5075	0.775	0.156556
-1.5	0.75	0.162162
-1.45	0.77625	0.173031
-1.41	0.61625	0.154725
-1.4325	0.75375	0.162413
-1.445	0.69625	0.17115
-1.4925	0.7875	0.161194
-1.545	0.76375	0.145719
-1.465	0.775	0.152631
-1.5175	0.785	0.166075
-1.515	0.8	0.161537
-1.535	0.8025	0.159587
-1.6075	0.84875	0.151856
-1.56	0.8075	0.162356
-1.5175	0.75375	0.158044
-1.475	0.72125	0.167288
-1.4475	0.6075	0.173319
-1.58	0.8425	0.174275
-1.4975	0.66625	0.161594
-1.475	0.77625	0.179587
-1.6	0.8475	0.146919
-1.52	0.7325	0.151675
-1.485	0.77875	0.147306
-1.49	0.7875	0.159281
-1.4625	0.61875	0.196956
-1.6525	0.86125	0.1749
-1.465	0.69	0.170881
-1.46	0.70375	0.164981
-1.535	0.80625	0.17375
-1.5125	0.74625	0.150275
-1.4975	0.73375	0.15895
-1.4975	0.6775	0.172019
-1.5275	0.83125	0.174769
-1.555	0.75375	0.1686
-1.4325	0.71625	0.15965
-1.4775	0.79375	0.162612
-1.4675	0.695	0.179069
-1.4675	0.6875	0.1798
-1.4525	0.70625	0.195531
-1.5325	0.71875	0.18065
-1.36	0.63625	0.1603
-1.49	0.7725	0.153869
-1.445	0.68875	0.157456
-1.4725	0.6925	0.176119
-1.5975	0.83875	0.168094
-1.445	0.715	0.162719
-1.475	0.79125	0.166969
-1.285	0.5475	0.169119
-1.435	0.73875	0.192331
-1.5575	0.82	0.161456
-1.49	0.70375	0.186031
-1.3425	0.5675	0.187906
-1.4225	0.705	0.177087
-1.5425	0.71875	0.169844
-1.55	0.7925	0.166781
-1.565	0.81	0.163925
-1.44	0.74	0.1551
-1.4375	0.75375	0.165256
-1.5025	0.7375	0.170494
-1.51	0.785	0.181775
-1.5075	0.7675	0.151
-1.5825	0.8275	0.162125
-1.4875	0.76	0.15505
-1.525	0.72875	0.174856
-1.565	0.825	0.155381
-1.475	0.75625	0.155219
-1.43	0.61625	0.194125
-1.4875	0.5675	0.198231
-1.43	0.65125	0.201269
-1.4725	0.37	0.200056
-1.3925	0.43	0.200988
-1.4275	0.44625	0.188481
-1.51	0.67875	0.176462
-1.3475	0.48875	0.185938
-1.35	0.47875	0.207187
-1.4225	0.6275	0.197181
-1.4875	0.755	0.167638
-1.515	0.78	0.162425
-1.55	0.81875	0.164594
-1.565	0.84125	0.150862
-1.5275	0.79625	0.147187
-1.4225	0.7425	0.151719
-1.49	0.71375	0.168106
-1.58	0.81375	0.163362
-1.4775	0.7725	0.156044
-1.5825	0.82875	0.156494
-1.5075	0.80875	0.148025
-1.4	0.68125	0.151337
-1.3675	0.7475	0.163156
-1.4725	0.77875	0.166719
-1.4675	0.66625	0.15925
-1.435	0.7175	0.193394
-1.5475	0.83875	0.160094
-1.6725	0.87875	0.147838
-1.56	0.79	0.142831
-1.55	0.79625	0.146831
-1.59	0.83625	0.149175
-1.6125	0.8425	0.156169
-1.5175	0.77375	0.149281
-1.515	0.785	0.158481
-1.585	0.84625	0.149994
-1.57	0.83875	0.15275
-1.5475	0.79875	0.144325
-1.5225	0.78625	0.158025
-1.5175	0.77875	0.16015
-1.4825	0.76875	0.14985
-1.5525	0.82125	0.168437
-1.575	0.82	0.139931
-1.4975	0.79125	0.166244
-1.525	0.755	0.155956
-1.515	0.76375	0.167044
-1.52	0.80875	0.1709
-1.495	0.72875	0.164187
-1.5	0.76125	0.176663
-1.55	0.82625	0.148762
-1.525	0.79625	0.160138
-1.555	0.83625	0.155562
-1.5125	0.79125	0.1437
-1.52	0.76875	0.1573
-1.61	0.83125	0.161438
-1.48	0.715	0.164294
-1.4225	0.58875	0.174269
-1.47	0.77375	0.183163
-1.555	0.8125	0.153519
-1.4225	0.495	0.181525
-1.34	0.3425	0.205187
-1.4225	0.46875	0.193931
-1.47	0.61625	0.1978
-1.5025	0.745	0.160506
-1.4275	0.75125	0.171031
-1.4775	0.75375	0.155012
-1.4975	0.79375	0.16585
-1.4275	0.56375	0.164538
-1.48	0.63125	0.195
-1.52	0.72	0.184981
-1.42	0.73875	0.146719
-1.38	0.60875	0.180837
-1.5075	0.78125	0.180613
-1.46	0.75	0.184356
-1.35	0.59	0.183962
-1.3375	0.56375	0.192556
-1.49	0.70625	0.190375
-1.4075	0.69625	0.169288
-1.4525	0.6475	0.174556
-1.5125	0.79	0.161537
-1.54	0.805	0.16165
-1.4925	0.74125	0.157369
-1.5075	0.72375	0.184587
-1.4825	0.725	0.153731
-1.4225	0.6525	0.170525
-1.445	0.72	0.168662
-1.61	0.8025	0.16105
-1.4775	0.735	0.170625
-1.6625	0.8875	0.1528
-1.4775	0.74	0.147962
-1.49	0.76875	0.146281
-1.62	0.855	0.146606
-1.5525	0.81625	0.144219
-1.6075	0.84875	0.152863
-1.54	0.7725	0.149594
-1.5025	0.80375	0.147444
-1.555	0.7975	0.168144
-1.635	0.88	0.153725
-1.405	0.55875	0.165419
-1.375	0.45125	0.210475
-1.46	0.695	0.212694
-1.4175	0.635	0.1783
-1.6	0.8075	0.1813
-1.53	0.8	0.173687
-1.44	0.68875	0.150206
-1.555	0.80875	0.1628
-1.59	0.80625	0.160637
-1.4375	0.66625	0.15995
-1.6325	0.855	0.153281
-1.4775	0.75	0.174487
-1.64	0.84375	0.161081
-1.4225	0.695	0.153556
-1.46	0.715	0.161825
-1.5375	0.8225	0.154487
-1.555	0.78625	0.153506
-1.4575	0.7325	0.171744
-1.585	0.8325	0.162688
-1.515	0.78375	0.153094
-1.5325	0.81125	0.159413
-1.44	0.695	0.153831
-1.6425	0.86	0.164587
-1.49	0.78375	0.149119
-1.44	0.75125	0.156113
-1.61	0.83875	0.168263
-1.5925	0.8625	0.146056
-1.5725	0.85	0.1409
-1.57	0.845	0.137163
-1.4775	0.76375	0.160981
-1.425	0.6125	0.181794
-1.43	0.67625	0.184506
-1.56	0.7875	0.171281
-1.485	0.76125	0.171281
-1.545	0.83125	0.163975
-1.445	0.79125	0.151313
-1.4475	0.695	0.155481
-1.3675	0.60375	0.190906
-1.5325	0.64625	0.17245
-1.4075	0.1975	0.197069
-1.355	0.2	0.20845
-1.2775	0.39625	0.208819
-1.42	0.3425	0.235606
-1.3675	0.615	0.217225
-1.555	0.8325	0.159838
-1.475	0.755	0.155787
-1.57	0.815	0.168237
-1.4825	0.78125	0.146631
-1.6675	0.89	0.143781
-1.5875	0.83	0.155225
-1.5175	0.80625	0.158456
-1.4425	0.635	0.176731
-1.575	0.755	0.181675
-1.3825	0.64625	0.180969
-1.4875	0.79375	0.174125
-1.505	0.7525	0.152944
-1.63	0.84	0.156175
-1.65	0.84625	0.157606
-1.6	0.84125	0.153375
-1.4925	0.72625	0.152463
-1.485	0.7425	0.160481
-1.535	0.755	0.159988
-1.4825	0.58875	0.169956
-1.4675	0.74375	0.18445
-1.535	0.77875	0.153063
-1.465	0.75125	0.160912
-1.5375	0.8025	0.155356
-1.525	0.79875	0.161094
-1.5125	0.7575	0.159006
-1.6825	0.85625	0.163719
-1.4725	0.79125	0.150462
-1.4875	0.80125	0.169387
-1.4275	0.6725	0.163431
-1.5975	0.83875	0.155806
-1.5575	0.775	0.142756
-1.545	0.80125	0.162019
-1.4825	0.75625	0.154012
-1.4825	0.77875	0.157713
-1.58	0.8125	0.149806
-1.62	0.85	0.157375
-1.495	0.77	0.145075
-1.535	0.82	0.15525
-1.5425	0.81875	0.147219
-1.575	0.815	0.156569
-1.605	0.81625	0.162281
-1.47	0.725	0.158356
-1.36	0.43875	0.194069
-1.4275	0.7125	0.192731
-1.515	0.82	0.161625
-1.455	0.69	0.158287
-1.435	0.7525	0.161225
-1.4125	0.6775	0.182563
-1.4075	0.73125	0.163206
-1.62	0.82	0.154744
-1.535	0.76	0.153512
-1.5675	0.83875	0.161331
-1.48	0.78625	0.149087
-1.535	0.82375	0.1528
-1.535	0.7125	0.161356
-1.51	0.8075	0.156537
-1.55	0.75	0.14665
-1.545	0.8	0.143025
