# nm = 1024 nc = 100 len = 100 extf = 0 beta = 0.442
#energy 	magnetization 	acceptance
-1.4312	0.685	0.184191
-1.436	0.6344	0.184781
-1.4416	0.7064	0.19012
-1.4304	0.69	0.189174
-1.4624	0.7134	0.187641
-1.438	0.6332	0.185195
-1.4088	0.5812	0.201122
-1.44	0.6142	0.192585
-1.452	0.5792	0.189291
-1.3928	0.5442	0.200551
-1.444	0.5434	0.196046
-1.378	0.4746	0.196902
-1.3676	0.4228	0.202625
-1.3824	0.5136	0.200618
-1.3784	0.4818	0.197055
-1.414	0.5682	0.195934
-1.4144	0.5448	0.194539
-1.436	0.5868	0.190144
-1.4636	0.5608	0.199148
-1.4572	0.5348	0.18953
-1.3952	0.516	0.196084
-1.4472	0.5706	0.191577
-1.4468	0.6358	0.187852
-1.4532	0.6732	0.192551
-1.3932	0.5328	0.197178
-1.4664	0.598	0.19639
-1.4288	0.5828	0.191598
-1.4416	0.6224	0.187452
-1.4456	0.6514	0.185255
-1.4172	0.6146	0.19088
-1.4032	0.5718	0.19948
-1.4416	0.6956	0.185635
-1.4596	0.6984	0.18272
-1.4268	0.6768	0.190688
-1.4548	0.6608	0.176158
-1.4744	0.6802	0.191933
-1.4484	0.7	0.178037
-1.4436	0.582	0.186992
-1.434	0.5346	0.190595
-1.4192	0.5156	0.197179
-1.4076	0.5352	0.208402
-1.438	0.563	0.193407
-1.4132	0.5684	0.198031
-1.3704	0.5394	0.195209
-1.3988	0.4762	0.2074
-1.394	0.5294	0.211164
-1.4284	0.5722	0.208356
-1.4696	0.6728	0.195245
-1.48	0.6866	0.178691
-1.4728	0.7198	0.185716
-1.4648	0.7018	0.180732
-1.4784	0.7116	0.184679
-1.4864	0.7002	0.185579
-1.444	0.696	0.180953
-1.4456	0.7086	0.184661
-1.4684	0.723	0.174282
-1.47	0.7044	0.177511
-1.4256	0.6894	0.183513
-1.4256	0.6394	0.195098
-1.4708	0.6992	0.188389
-1.4128	0.6294	0.186287
-1.4764	0.7246	0.186848
-1.4672	0.7208	0.186489
-1.4252	0.6588	0.180478
-1.4468	0.6788	0.194284
-1.448	0.6078	0.195815
-1.4128	0.5886	0.192486
-1.4612	0.5834	0.199468
-1.42	0.5642	0.201816
-1.4104	0.573	0.208496
-1.3904	0.5886	0.197266
-1.4632	0.6582	0.194342
-1.4488	0.643	0.19043
-1.4988	0.7382	0.187104
-1.4788	0.7156	0.177569
-1.4264	0.6412	0.189064
-1.4196	0.6832	0.18768
-1.44	0.604	0.1943
-1.3976	0.5064	0.20495
-1.4484	0.5528	0.200304
-1.4376	0.5826	0.191553
-1.4284	0.5222	0.194166
-1.4664	0.5326	0.196306
-1.3788	0.4756	0.197655
-1.4304	0.5364	0.200036
-1.39	0.5074	0.193413
-1.4508	0.4358	0.192204
-1.3712	0.422	0.194411
-1.3884	0.347	0.205075
-1.3984	0.4924	0.202397
-1.4132	0.5248	0.196974
-1.3956	0.4554	0.208033
-1.4108	0.5642	0.195418
-1.452	0.5736	0.199537
-1.4332	0.6314	0.197561
-1.4584	0.635	0.19111
-1.408	0.6434	0.190556
-1.4736	0.7532	0.179545
-1.5032	0.7228	0.174818
-1.4436	0.6952	0.180474
-1.4432	0.6638	0.183711
-1.45	0.6822	0.18998
-1.4576	0.7458	0.185212
-1.4556	0.6932	0.185213
-1.4128	0.656	0.18978
-1.4156	0.6212	0.191336
-1.4176	0.6218	0.195451
-1.4208	0.5674	0.198512
-1.4136	0.5016	0.201933
-1.476	0.6828	0.198162
-1.4408	0.6806	0.188005
-1.4412	0.682	0.188089
-1.4468	0.7142	0.183911
-1.4396	0.6568	0.190015
-1.4468	0.6588	0.19294
-1.4444	0.7018	0.189575
-1.5052	0.7552	0.178673
-1.4608	0.7212	0.180342
-1.4112	0.6408	0.189216
-1.486	0.7208	0.185568
-1.4216	0.6258	0.191485
-1.44	0.6888	0.194007
-1.4216	0.6656	0.185468
-1.4388	0.5998	0.194223
-1.3832	0.5446	0.201252
-1.4232	0.558	0.198191
-1.394	0.4262	0.196269
-1.4084	0.4638	0.198374
-1.4312	0.5142	0.19866
-1.464	0.6076	0.195641
-1.4268	0.5564	0.19008
-1.4264	0.4522	0.195263
-1.4264	0.4332	0.206209
-1.386	0.4928	0.2069
-1.4372	0.632	0.19135
-1.3992	0.5924	0.191018
-1.4248	0.6392	0.191262
-1.4536	0.6456	0.187072
-1.4248	0.675	0.188409
-1.4748	0.7026	0.187812
-1.4752	0.6918	0.19128
-1.4716	0.7254	0.182638
-1.486	0.7308	0.175201
-1.4524	0.6566	0.180983
-1.4424	0.6516	0.186855
-1.408	0.5948	0.195934
-1.4488	0.6432	0.196636
-1.4488	0.644	0.189506
-1.4688	0.7308	0.193494
-1.42	0.6728	0.186364
-1.43	0.676	0.191308
-1.4464	0.694	0.188968
-1.4488	0.6936	0.183054
-1.502	0.7558	0.177503
-1.4496	0.6694	0.177374
-1.456	0.6828	0.189971
-1.42	0.6256	0.1878
-1.444	0.6516	0.191788
-1.4436	0.6826	0.190365
-1.3772	0.5936	0.195757
-1.4268	0.659	0.194209
-1.402	0.501	0.193222
-1.4052	0.5544	0.198009
-1.3944	0.4822	0.208715
-1.3892	0.42	0.202135
-1.3608	0.4604	0.207924
-1.4556	0.5724	0.202984
-1.4652	0.5958	0.194381
-1.4428	0.6194	0.188892
-1.4048	0.5972	0.194605
-1.4668	0.6646	0.188285
-1.47	0.707	0.189334
-1.4156	0.6332	0.194991
-1.4404	0.6676	0.191046
-1.4156	0.6352	0.185868
-1.478	0.6708	0.187956
-1.4128	0.6856	0.185346
-1.456	0.6944	0.184354
-1.496	0.7478	0.177465
-1.4572	0.676	0.182729
-1.5156	0.7716	0.182664
-1.4768	0.7402	0.177573
-1.432	0.6456	0.184143
-1.4332	0.6328	0.185778
-1.3796	0.4914	0.196537
-1.4268	0.575	0.199638
-1.4608	0.6696	0.199231
-1.4308	0.711	0.190249
-1.4348	0.7054	0.176778
-1.4552	0.6922	0.184122
-1.444	0.663	0.188178
-1.4312	0.6648	0.191169
-1.4284	0.6264	0.186116
-1.4704	0.697	0.192245
-1.4456	0.6458	0.189078
-1.442	0.5874	0.192114
-1.4576	0.611	0.194958
-1.4344	0.65	0.184317
-1.4316	0.6776	0.192122
-1.3912	0.5582	0.194323
-1.4292	0.6524	0.197219
-1.5084	0.729	0.184809
-1.4768	0.7322	0.184004
-1.4588	0.7028	0.187521
-1.4696	0.7028	0.183682
-1.4868	0.7446	0.175749
-1.4648	0.7498	0.177648
-1.5184	0.7654	0.182792
-1.4364	0.6512	0.179551
-1.4064	0.5924	0.188134
-1.4748	0.6788	0.194514
-1.4872	0.7144	0.186186
-1.4168	0.6452	0.190218
-1.5048	0.761	0.189065
-1.4212	0.6446	0.182248
-1.4128	0.6206	0.194958
-1.5024	0.7002	0.190196
-1.4728	0.7	0.188341
-1.402	0.6324	0.186416
-1.4616	0.7158	0.186723
-1.4752	0.7168	0.180345
-1.396	0.5998	0.189583
-1.4116	0.5628	0.189765
-1.4064	0.5868	0.195788
-1.4528	0.613	0.190563
-1.45	0.6084	0.197077
-1.4588	0.6908	0.194778
-1.4616	0.6486	0.189279
-1.3604	0.5382	0.196792
-1.446	0.6554	0.194912
-1.3712	0.614	0.194671
-1.4756	0.7294	0.187841
-1.5032	0.7392	0.183151
-1.45	0.6876	0.180134
-1.4492	0.6988	0.185452
-1.4856	0.7606	0.177781
-1.4412	0.7074	0.181078
-1.4932	0.7686	0.17863
-1.4688	0.7244	0.179381
-1.4824	0.7728	0.180228
-1.4836	0.7456	0.173872
-1.438	0.6988	0.185696
-1.4332	0.5984	0.192706
-1.4112	0.503	0.194021
-1.4196	0.5082	0.206284
-1.4472	0.5078	0.192262
-1.43	0.6714	0.195212
-1.4392	0.6406	0.189474
-1.4704	0.7236	0.184991
-1.44	0.702	0.185296
-1.4512	0.7106	0.182271
-1.4412	0.6116	0.186121
-1.4652	0.7164	0.188524
-1.4372	0.6598	0.189077
-1.4156	0.6302	0.187434
-1.4684	0.6786	0.189598
-1.47	0.5726	0.200022
-1.4336	0.5534	0.195368
-1.4104	0.583	0.19757
-1.4196	0.5876	0.195001
-1.3864	0.5368	0.197198
-1.4248	0.5868	0.19557
-1.4776	0.556	0.196258
-1.4308	0.465	0.203211
-1.4132	0.4514	0.201412
-1.4456	0.5428	0.196437
-1.4056	0.4408	0.200736
-1.4444	0.5958	0.203527
-1.4536	0.6652	0.192283
-1.4236	0.6428	0.18651
-1.4056	0.6784	0.1905
-1.4772	0.73	0.184346
-1.4604	0.7428	0.17711
-1.4892	0.7322	0.181811
-1.4496	0.6782	0.182886
-1.4384	0.7322	0.178656
-1.414	0.6708	0.185139
-1.4864	0.724	0.187374
-1.4852	0.7316	0.179864
-1.5072	0.7606	0.178661
-1.4768	0.7492	0.178433
-1.4684	0.6896	0.176758
-1.4076	0.6466	0.186361
-1.4656	0.7268	0.182733
-1.4656	0.7112	0.184662
-1.4612	0.6588	0.181528
-1.4196	0.6666	0.184717
-1.4328	0.6442	0.189134
-1.4328	0.6804	0.187467
-1.452	0.6106	0.193951
-1.3992	0.6034	0.197054
-1.4588	0.6558	0.19127
-1.478	0.7056	0.180975
-1.4904	0.7286	0.182687
-1.4236	0.6708	0.179947
-1.4348	0.7136	0.187584
-1.5076	0.7492	0.182466
-1.4364	0.6988	0.180364
-1.4564	0.7378	0.182997
-1.4572	0.6788	0.186207
-1.4352	0.6536	0.190904
-1.4296	0.6888	0.186416
-1.4696	0.7242	0.176367
-1.4196	0.6592	0.188079
-1.4588	0.6712	0.188674
-1.4328	0.6786	0.192623
-1.4376	0.6752	0.189939
-1.4456	0.6884	0.18098
-1.4772	0.7242	0.182681
-1.3948	0.6436	0.179243
-1.4792	0.661	0.182351
-1.4516	0.678	0.193417
-1.4628	0.7114	0.183035
-1.4592	0.6922	0.184342
-1.4916	0.7474	0.184662
-1.474	0.7394	0.181328
-1.472	0.7518	0.174368
-1.4584	0.6816	0.184281
-1.4144	0.644	0.18995
-1.4648	0.6484	0.200666
-1.4488	0.6998	0.185769
-1.4268	0.7162	0.182402
-1.4316	0.6636	0.187301
-1.4636	0.6994	0.182707
-1.4612	0.7114	0.17934
-1.504	0.7214	0.177592
-1.4448	0.6366	0.190664
-1.4368	0.5324	0.197115
-1.4196	0.5546	0.192935
-1.4472	0.5854	0.19819
-1.4616	0.6206	0.193226
-1.436	0.517	0.195498
-1.4068	0.5538	0.196782
-1.3668	0.549	0.185542
-1.4248	0.5916	0.194057
-1.4336	0.6138	0.189079
-1.4456	0.6398	0.188956
-1.4312	0.6594	0.18625
-1.4288	0.635	0.188296
-1.4532	0.6798	0.181138
-1.4408	0.686	0.186843
-1.4616	0.6764	0.19007
-1.4188	0.6544	0.192122
-1.4184	0.6288	0.196074
-1.4724	0.6682	0.195019
-1.4464	0.648	0.182505
-1.4436	0.6642	0.190903
-1.4544	0.6622	0.186426
-1.3872	0.5852	0.194213
-1.3892	0.6218	0.195435
-1.42	0.637	0.187136
-1.4016	0.5904	0.195941
-1.4544	0.696	0.193496
-1.4576	0.6992	0.177688
-1.4524	0.7038	0.184965
-1.4196	0.6782	0.18286
-1.4408	0.6398	0.194704
-1.4356	0.6392	0.190939
-1.4276	0.6354	0.196887
-1.3892	0.608	0.191597
-1.4084	0.579	0.201581
-1.37	0.5208	0.202549
-1.4096	0.5892	0.1998
-1.4268	0.5558	0.200837
-1.4724	0.653	0.197028
-1.4616	0.6366	0.1828
-1.4372	0.6068	0.201081
-1.4104	0.6046	0.187837
-1.4844	0.749	0.181372
-1.5248	0.7584	0.178915
-1.4836	0.7242	0.183855
-1.4528	0.675	0.180826
-1.4472	0.6378	0.19844
-1.4236	0.6386	0.189944
-1.4412	0.6098	0.1988
-1.4728	0.6232	0.192807
-1.4424	0.6466	0.182353
-1.508	0.718	0.179551
-1.484	0.706	0.179226
-1.4852	0.7506	0.178861
-1.46	0.695	0.179034
-1.4852	0.7216	0.184245
-1.4504	0.6804	0.18692
-1.4852	0.681	0.182839
-1.5236	0.725	0.180832
-1.4384	0.611	0.186298
-1.4232	0.6168	0.194143
-1.4096	0.5956	0.19585
-1.4104	0.6376	0.195904
-1.4608	0.65	0.191882
-1.4708	0.587	0.196905
-1.4664	0.6714	0.196994
-1.4004	0.6252	0.189205
-1.4432	0.6988	0.188586
-1.4612	0.7026	0.184423
-1.4904	0.749	0.177648
-1.48	0.7166	0.176484
-1.4232	0.6546	0.19388
-1.4124	0.5658	0.188742
-1.4236	0.6578	0.204322
-1.4492	0.7128	0.183273
-1.4204	0.6076	0.189826
-1.4236	0.6712	0.189932
-1.4824	0.701	0.189053
-1.4556	0.721	0.183572
-1.4508	0.6856	0.180777
-1.4444	0.6702	0.191601
-1.452	0.6696	0.190903
-1.5236	0.79	0.177762
-1.4716	0.7276	0.174138
-1.4244	0.6352	0.18782
-1.4212	0.669	0.191021
-1.4564	0.6042	0.187456
-1.5	0.686	0.190345
-1.4272	0.6446	0.189297
-1.4004	0.6174	0.201618
-1.3988	0.6158	0.198578
-1.4332	0.6816	0.187119
-1.458	0.644	0.189844
-1.4764	0.7128	0.180538
-1.4532	0.6556	0.184066
-1.4408	0.6542	0.190295
-1.4424	0.6106	0.193894
-1.4484	0.654	0.188315
-1.4176	0.6076	0.195924
-1.3848	0.5834	0.199553
-1.4384	0.6108	0.193913
-1.4208	0.61	0.191288
-1.394	0.5896	0.197334
-1.4148	0.604	0.1924
-1.434	0.6334	0.193699
-1.4648	0.623	0.19632
-1.43	0.6706	0.192508
-1.4708	0.6918	0.193992
-1.4404	0.7074	0.185926
-1.3948	0.6606	0.195974
-1.4488	0.685	0.187066
-1.398	0.597	0.192674
-1.4464	0.7204	0.195565
-1.4388	0.697	0.183923
-1.4812	0.7332	0.178689
-1.4776	0.7506	0.175665
-1.4744	0.7332	0.175617
-1.4316	0.6854	0.184147
-1.4732	0.7262	0.187482
-1.4936	0.753	0.17493
-1.456	0.7372	0.180937
-1.4936	0.774	0.175472
-1.4888	0.7652	0.173058
-1.5072	0.7616	0.177454
-1.4748	0.715	0.178921
-1.5044	0.7024	0.188853
-1.4632	0.6962	0.185655
-1.4568	0.674	0.181233
-1.4516	0.7194	0.187813
-1.4584	0.7326	0.191634
-1.4908	0.7526	0.175596
-1.4544	0.7002	0.173112
-1.4264	0.6344	0.197185
-1.402	0.6512	0.196976
-1.412	0.635	0.190127
-1.406	0.5814	0.19974
-1.4404	0.5786	0.196762
-1.456	0.585	0.18495
-1.45	0.5438	0.18721
-1.4452	0.5272	0.192717
-1.4372	0.4574	0.200339
-1.4304	0.4672	0.203085
-1.4164	0.4504	0.209106
-1.4336	0.5216	0.198408
-1.438	0.4602	0.199261
-1.4208	0.524	0.202299
-1.4004	0.556	0.193324
-1.4496	0.5688	0.194014
-1.4264	0.567	0.192723
-1.46	0.5778	0.19482
-1.4556	0.589	0.191572
-1.4208	0.5644	0.191483
-1.4496	0.6614	0.194191
-1.4656	0.6746	0.190392
-1.442	0.648	0.184299
-1.428	0.6754	0.186805
-1.4444	0.6946	0.1839
-1.4312	0.6666	0.190766
-1.4488	0.6594	0.183576
-1.4136	0.5926	0.197402
-1.472	0.7374	0.185962
-1.418	0.68	0.185197
-1.4508	0.6506	0.190697
-1.4324	0.6624	0.189471
-1.4788	0.7474	0.183387
-1.428	0.6888	0.186767
-1.4036	0.5852	0.196446
-1.4416	0.5998	0.196247
-1.4116	0.4886	0.20247
-1.4008	0.4484	0.202871
-1.3972	0.4152	0.206778
-1.3864	0.5656	0.21076
-1.4168	0.6268	0.194266
-1.4864	0.6934	0.186225
-1.4648	0.7328	0.177553
-1.4088	0.701	0.174437
-1.486	0.7322	0.179118
-1.4708	0.6858	0.187466
-1.4856	0.7142	0.187436
-1.4776	0.7402	0.178634
-1.452	0.7268	0.173787
-1.4632	0.7358	0.181601
-1.5128	0.76	0.174305
-1.4988	0.7478	0.176109
-1.464	0.7136	0.177819
-1.502	0.7632	0.176724
-1.4836	0.7598	0.167917
-1.4408	0.6246	0.184322
-1.4284	0.626	0.189651
-1.404	0.556	0.196504
-1.3816	0.5862	0.199291
-1.4156	0.6396	0.193531
-1.4436	0.6388	0.192504
-1.4928	0.7418	0.186001
-1.4788	0.7316	0.180171
-1.4592	0.6928	0.185878
-1.47	0.683	0.182935
-1.4624	0.6714	0.188738
-1.492	0.6792	0.185965
-1.4748	0.7056	0.185928
-1.4484	0.6722	0.185603
-1.4716	0.7272	0.181927
-1.4812	0.7694	0.180945
-1.4676	0.691	0.186038
-1.4608	0.6654	0.186742
-1.3924	0.6218	0.191546
-1.4424	0.6396	0.195009
-1.4568	0.6472	0.195638
-1.5068	0.7478	0.184965
-1.4704	0.7658	0.17913
-1.4608	0.7058	0.185122
-1.406	0.6128	0.184577
-1.4688	0.7052	0.193308
-1.4476	0.6984	0.190006
-1.4212	0.6908	0.185498
-1.4808	0.7006	0.186991
-1.4496	0.6658	0.193342
-1.3832	0.6232	0.187603
-1.5144	0.7498	0.186443
-1.4416	0.692	0.180709
-1.4548	0.7514	0.184173
-1.4732	0.7212	0.169479
-1.4824	0.715	0.184445
-1.4604	0.712	0.180635
-1.4688	0.6908	0.183644
-1.4588	0.6362	0.187349
-1.4572	0.6772	0.187613
-1.4624	0.6634	0.181189
-1.4576	0.659	0.181264
-1.4452	0.6124	0.186109
-1.482	0.6756	0.1921
-1.4612	0.6954	0.189817
-1.438	0.687	0.190194
-1.424	0.6602	0.18418
-1.426	0.5998	0.183974
-1.4376	0.5526	0.191142
-1.4404	0.5484	0.195275
-1.4308	0.559	0.193671
-1.4296	0.5252	0.193743
-1.4184	0.5934	0.203693
-1.3992	0.6516	0.190981
-1.4596	0.6984	0.185522
-1.4652	0.7562	0.184083
-1.448	0.6802	0.183382
-1.3812	0.6678	0.187734
-1.4612	0.7622	0.186358
-1.4268	0.679	0.178036
-1.3948	0.5758	0.187866
-1.4332	0.694	0.196953
-1.4696	0.6856	0.182986
-1.4448	0.6658	0.189635
-1.4612	0.6866	0.190318
-1.4492	0.691	0.184024
-1.4376	0.6534	0.189834
-1.4148	0.5582	0.19229
-1.4408	0.5768	0.199783
-1.4344	0.5874	0.190041
-1.468	0.6068	0.190397
-1.436	0.5764	0.191342
-1.4316	0.616	0.181286
-1.468	0.6126	0.188713
-1.4452	0.6384	0.194387
-1.4452	0.6694	0.194895
-1.3676	0.49	0.195463
-1.4444	0.6002	0.202035
-1.466	0.6132	0.191113
-1.448	0.6444	0.187348
-1.432	0.6388	0.191016
-1.4184	0.6502	0.191661
-1.4276	0.6058	0.190868
-1.4348	0.6482	0.1929
-1.4548	0.709	0.191996
-1.4648	0.6988	0.182891
-1.452	0.7072	0.184038
-1.4784	0.748	0.180384
-1.458	0.708	0.18284
-1.4456	0.5904	0.18374
-1.3916	0.5338	0.190305
-1.402	0.617	0.208958
-1.414	0.6146	0.194492
-1.448	0.6372	0.184797
-1.4332	0.621	0.191227
-1.3748	0.5918	0.199832
-1.4616	0.668	0.187789
-1.4212	0.6224	0.19885
-1.448	0.6846	0.188701
-1.418	0.6174	0.183364
-1.4892	0.694	0.185401
-1.4292	0.6342	0.182175
-1.4188	0.5578	0.196634
-1.4328	0.6436	0.197691
-1.4344	0.5678	0.200673
-1.4744	0.6338	0.195272
-1.3772	0.6244	0.188277
-1.4192	0.6154	0.196009
-1.4372	0.6134	0.200168
-1.4416	0.6614	0.197046
-1.4564	0.6814	0.183774
-1.4408	0.6392	0.186441
-1.4784	0.681	0.183443
-1.4196	0.6734	0.181546
-1.4768	0.716	0.183391
-1.4484	0.7286	0.178509
-1.41	0.6116	0.183865
-1.4408	0.6554	0.195447
-1.4496	0.6652	0.187211
-1.4824	0.7276	0.18683
-1.466	0.6978	0.179051
-1.4436	0.6434	0.182198
-1.4616	0.714	0.185885
-1.4516	0.7102	0.176657
-1.4176	0.6106	0.1873
-1.4048	0.645	0.194728
-1.446	0.6152	0.188789
-1.4172	0.6296	0.186122
-1.4396	0.6046	0.198477
-1.4628	0.5974	0.193294
-1.414	0.5696	0.192585
-1.468	0.6288	0.197716
-1.4536	0.6068	0.196078
-1.4656	0.7032	0.191376
-1.4	0.6782	0.191835
-1.482	0.7414	0.182004
-1.4648	0.738	0.179377
-1.4324	0.6214	0.186357
-1.4032	0.6186	0.193738
-1.4488	0.6508	0.193923
-1.3772	0.567	0.199395
-1.4016	0.6316	0.193307
-1.4088	0.618	0.196704
-1.4428	0.6774	0.189049
-1.4864	0.7342	0.187016
-1.4572	0.7114	0.18054
-1.444	0.6976	0.192449
-1.4408	0.6918	0.186413
-1.446	0.7106	0.185768
-1.4364	0.6874	0.19022
-1.4316	0.6828	0.194035
-1.4152	0.6378	0.188957
-1.45	0.7168	0.184921
-1.4748	0.7634	0.184945
-1.4292	0.6916	0.180025
-1.5056	0.7224	0.182964
-1.4224	0.6326	0.187677
-1.44	0.7102	0.181336
-1.4704	0.6868	0.185327
-1.4152	0.65	0.188368
-1.442	0.7246	0.185881
-1.4556	0.7284	0.186193
-1.4716	0.6752	0.186962
-1.4424	0.7058	0.184405
-1.4236	0.6002	0.185894
-1.4008	0.5902	0.190962
-1.416	0.5574	0.19615
-1.4468	0.6632	0.195893
-1.4776	0.7052	0.188248
-1.422	0.6212	0.189144
-1.4452	0.6904	0.194774
-1.4824	0.7706	0.180633
-1.4844	0.7336	0.176967
-1.4524	0.6854	0.177947
-1.4412	0.6142	0.188234
-1.4036	0.608	0.193663
-1.4072	0.6082	0.193853
-1.4836	0.6834	0.19374
-1.4076	0.604	0.197545
-1.3712	0.5676	0.205448
-1.4796	0.701	0.190531
-1.4964	0.7508	0.176311
-1.4756	0.7634	0.173383
-1.4832	0.7676	0.174037
-1.4692	0.7358	0.174167
-1.4668	0.7564	0.179875
-1.4432	0.6578	0.180577
-1.4136	0.6274	0.194556
-1.4396	0.6582	0.191002
-1.4984	0.6406	0.182898
-1.4296	0.6448	0.192771
-1.4476	0.6656	0.189786
-1.438	0.6956	0.185058
-1.4424	0.6728	0.18761
-1.4776	0.745	0.180977
-1.4516	0.6916	0.188489
-1.4392	0.5926	0.191675
-1.4836	0.6454	0.193046
-1.4228	0.5762	0.19774
-1.4236	0.6366	0.199286
-1.4256	0.6632	0.186997
-1.3976	0.6252	0.197552
-1.488	0.7456	0.188202
-1.4524	0.6742	0.185039
-1.4464	0.6856	0.185395
-1.424	0.6786	0.184155
-1.4488	0.7382	0.186328
-1.4284	0.6394	0.184702
-1.456	0.7034	0.187892
-1.4344	0.6642	0.183342
-1.514	0.7696	0.176151
-1.4484	0.693	0.184933
-1.4576	0.6916	0.187947
-1.4344	0.6758	0.187125
-1.4288	0.6916	0.183403
-1.42	0.6688	0.18912
-1.4756	0.6698	0.189643
-1.4456	0.6238	0.18843
-1.4344	0.6408	0.190131
-1.4648	0.602	0.194594
-1.3988	0.554	0.19866
-1.464	0.7044	0.201536
-1.4452	0.7282	0.190021
-1.468	0.7166	0.182514
-1.476	0.7126	0.190042
-1.4116	0.6152	0.184793
-1.4528	0.6574	0.188349
-1.4228	0.5986	0.192404
-1.4132	0.5618	0.193348
-1.4256	0.649	0.196902
-1.4336	0.6556	0.196825
-1.4368	0.62	0.195648
-1.3828	0.5542	0.198015
-1.4648	0.718	0.195395
-1.4824	0.7206	0.180207
-1.4452	0.7142	0.185886
-1.4396	0.6778	0.187106
-1.468	0.6758	0.18759
-1.4276	0.6008	0.186629
-1.4248	0.5842	0.195301
-1.4212	0.509	0.20373
-1.4444	0.654	0.197857
-1.428	0.5072	0.191624
-1.4252	0.4168	0.204838
-1.3776	0.3082	0.209949
-1.3612	0.1934	0.21405
-1.3232	0.1916	0.215197
-1.3528	0.182	0.214556
-1.4072	0.2038	0.210793
-1.3872	0.1396	0.208611
-1.3888	0.0974	0.214963
-1.4264	0.1436	0.211897
-1.3552	0.2378	0.215833
-1.4092	0.323	0.207152
-1.3812	0.386	0.200993
-1.3924	0.4454	0.205551
-1.3812	0.4816	0.203087
-1.432	0.5494	0.203949
-1.4324	0.5578	0.189452
-1.4184	0.6572	0.184053
-1.478	0.6844	0.181678
-1.4468	0.7134	0.180663
-1.4336	0.6992	0.188219
-1.448	0.6786	0.184631
-1.4848	0.7214	0.187824
-1.4328	0.7002	0.183134
-1.4676	0.6736	0.178659
-1.4852	0.7226	0.188227
-1.4592	0.6394	0.194372
-1.3936	0.5454	0.186992
-1.412	0.5674	0.198182
-1.454	0.5562	0.188778
-1.3964	0.434	0.196995
-1.4348	0.4496	0.193656
-1.4248	0.3544	0.203844
-1.4024	0.4324	0.207784
-1.4264	0.58	0.197296
-1.4264	0.5602	0.193053
-1.3948	0.487	0.199004
-1.4232	0.504	0.204663
-1.4072	0.504	0.19983
-1.436	0.5386	0.192123
-1.4024	0.4984	0.189933
-1.4572	0.5386	0.195025
-1.3652	0.5442	0.19578
-1.4304	0.63	0.194833
-1.4268	0.572	0.190244
-1.4276	0.6444	0.187396
-1.406	0.6036	0.185152
-1.4836	0.6898	0.191035
-1.412	0.6258	0.191778
-1.4032	0.5816	0.195831
-1.4224	0.597	0.200903
-1.4048	0.5328	0.196553
-1.4288	0.5362	0.195187
-1.4244	0.41	0.202151
-1.3968	0.4238	0.208245
-1.3984	0.4556	0.208113
-1.4688	0.4868	0.19936
-1.408	0.4318	0.192731
-1.3812	0.467	0.200014
-1.3664	0.4306	0.206038
-1.4128	0.474	0.197295
-1.4124	0.464	0.198676
-1.3844	0.4136	0.200724
-1.3956	0.4512	0.199876
-1.4444	0.4514	0.196639
-1.4104	0.4916	0.196793
-1.452	0.5904	0.195264
-1.4096	0.5664	0.198282
-1.4352	0.6554	0.195819
-1.4704	0.6896	0.195627
-1.47	0.6436	0.184728
-1.4284	0.6358	0.189899
-1.4428	0.648	0.191571
-1.4412	0.6024	0.192788
-1.446	0.7272	0.192868
-1.4536	0.7208	0.175526
-1.5248	0.7842	0.176129
-1.4568	0.6842	0.178244
-1.4532	0.6258	0.192254
-1.4856	0.7372	0.190107
-1.5192	0.7702	0.175467
-1.4356	0.6608	0.185159
-1.434	0.6416	0.19744
-1.4428	0.7316	0.180108
-1.46	0.7428	0.180508
-1.474	0.7328	0.178098
-1.442	0.6906	0.191743
-1.4648	0.7456	0.188457
-1.506	0.7804	0.174334
-1.4876	0.7388	0.180672
-1.4892	0.7678	0.179027
-1.4544	0.7172	0.181029
-1.4324	0.6586	0.189445
-1.5016	0.7454	0.181244
-1.4092	0.6386	0.181814
-1.4064	0.6032	0.198071
-1.4452	0.681	0.191565
-1.4392	0.6726	0.190192
-1.4724	0.7176	0.186633
-1.4384	0.6814	0.182769
-1.4344	0.7248	0.183757
-1.4532	0.7072	0.179608
-1.4716	0.7178	0.177973
-1.4572	0.732	0.178117
-1.4192	0.643	0.185489
-1.426	0.6966	0.183564
-1.4756	0.7482	0.18523
-1.4104	0.664	0.189315
-1.4884	0.7334	0.184085
-1.4816	0.7342	0.185836
-1.4532	0.7204	0.174275
-1.4516	0.6768	0.187518
-1.4788	0.7536	0.18326
-1.4668	0.727	0.182597
-1.468	0.6998	0.183292
-1.4372	0.683	0.18425
-1.4576	0.6008	0.192579
-1.4652	0.694	0.195878
-1.5292	0.775	0.177859
-1.452	0.7374	0.179766
-1.4532	0.7282	0.180946
-1.4692	0.7096	0.184791
-1.4908	0.7314	0.182221
-1.4532	0.7232	0.174977
-1.4876	0.7698	0.172491
-1.4056	0.6654	0.182438
-1.4896	0.763	0.18126
-1.4228	0.702	0.178109
-1.464	0.734	0.185542
-1.4224	0.689	0.185213
-1.4616	0.6722	0.186514
-1.4224	0.6098	0.192328
-1.3956	0.609	0.199266
-1.4332	0.6536	0.195401
-1.4256	0.6772	0.186196
-1.4336	0.6138	0.193801
-1.4192	0.6344	0.192157
-1.4472	0.664	0.191904
-1.4732	0.677	0.180115
-1.4348	0.6314	0.193294
-1.4004	0.5472	0.201137
-1.452	0.5244	0.192992
-1.414	0.4968	0.19613
-1.3984	0.5318	0.191631
-1.4088	0.547	0.200284
-1.412	0.5118	0.199686
-1.406	0.461	0.207568
-1.4572	0.623	0.200234
-1.3964	0.559	0.201516
-1.428	0.5788	0.198369
-1.4192	0.6172	0.196136
-1.3908	0.562	0.195942
-1.438	0.6422	0.193837
-1.4	0.6348	0.189755
-1.4584	0.6672	0.200934
-1.4648	0.6892	0.18196
-1.394	0.6128	0.190318
-1.4276	0.617	0.195317
-1.4436	0.6736	0.197285
-1.4192	0.631	0.193407
-1.406	0.5404	0.191049
-1.39	0.458	0.205294
-1.3892	0.468	0.19919
-1.3924	0.4338	0.200157
-1.3624	0.4252	0.200175
-1.4024	0.4774	0.209601
-1.4072	0.4262	0.204592
-1.354	0.291	0.212578
-1.4104	0.3592	0.209071
-1.4284	0.285	0.203741
-1.4488	0.2796	0.204243
-1.4272	0.2864	0.203
-1.3808	0.2328	0.200948
-1.394	0.3188	0.20148
-1.4236	0.2968	0.206234
-1.3956	0.3536	0.211454
-1.4084	0.3196	0.200402
-1.398	0.2802	0.205999
-1.374	0.1894	0.20771
-1.4192	0.1862	0.201724
-1.3816	0.299	0.204796
-1.3636	0.3044	0.210487
-1.384	0.3512	0.202022
-1.3932	0.376	0.20395
-1.4056	0.304	0.205912
-1.4368	0.2402	0.204631
-1.3856	0.1724	0.201923
-1.398	0.2304	0.206974
-1.4152	0.1348	0.212646
-1.42	0.1048	0.214764
-1.3744	0.154	0.21006
-1.3684	0.1808	0.2156
-1.39	0.1578	0.212377
-1.446	0.381	0.206178
-1.4476	0.3704	0.198065
-1.3692	0.4148	0.195456
-1.444	0.536	0.194928
-1.4276	0.428	0.198402
-1.388	0.2822	0.203947
-1.4196	0.3878	0.202278
-1.38	0.4936	0.201745
-1.4536	0.625	0.194585
-1.4272	0.6382	0.196838
-1.4284	0.6762	0.186674
-1.4404	0.6624	0.187367
-1.4572	0.6576	0.191034
-1.3896	0.635	0.191155
-1.4972	0.697	0.18936
-1.4532	0.6078	0.189056
-1.4256	0.5968	0.195025
-1.3728	0.586	0.194224
-1.3852	0.5418	0.202339
-1.4052	0.591	0.210238
-1.4576	0.7078	0.189064
-1.5084	0.7736	0.185027
-1.4908	0.7344	0.18571
-1.4488	0.722	0.186908
-1.458	0.7176	0.18713
-1.4408	0.6312	0.189384
-1.4364	0.6922	0.189673
-1.4648	0.724	0.182877
-1.4548	0.67	0.185524
-1.4604	0.658	0.18487
-1.3948	0.6566	0.195603
-1.4388	0.689	0.187236
-1.4264	0.6646	0.18792
-1.4564	0.6766	0.185854
-1.4236	0.7004	0.186593
-1.4508	0.6812	0.18474
-1.4392	0.6862	0.188511
-1.4712	0.7442	0.184276
-1.4808	0.706	0.185527
-1.4636	0.719	0.181581
-1.4712	0.6618	0.18848
-1.368	0.5514	0.197194
-1.4284	0.5884	0.201191
-1.4792	0.6778	0.193521
-1.4828	0.696	0.176645
-1.4556	0.71	0.185994
-1.4572	0.7258	0.185607
-1.478	0.7382	0.1799
-1.4644	0.7268	0.176235
-1.466	0.7114	0.184313
-1.4684	0.7368	0.175649
-1.4204	0.6856	0.181176
-1.4488	0.6708	0.183082
-1.4796	0.6636	0.185728
-1.4236	0.6292	0.187292
-1.4552	0.6724	0.200542
-1.442	0.7022	0.182505
-1.4668	0.6844	0.193321
-1.4752	0.7104	0.185248
-1.4616	0.71	0.18318
-1.45	0.68	0.190662
-1.4464	0.7058	0.189123
-1.45	0.732	0.180485
-1.474	0.684	0.187232
-1.4172	0.6906	0.184701
-1.4676	0.6982	0.187716
-1.4216	0.6418	0.194436
-1.4744	0.6788	0.190581
-1.4416	0.683	0.182185
-1.504	0.7482	0.179282
-1.468	0.7172	0.183541
-1.4676	0.6756	0.188038
-1.4412	0.6772	0.19729
-1.4988	0.76	0.179862
-1.5088	0.759	0.166663
-1.474	0.7572	0.180345
