# nm = 1024 nc = 100 len = 100 extf = 0 beta = 0.445
#energy 	magnetization 	acceptance
-1.5224	0.7024	0.189007
-1.4784	0.7068	0.178662
-1.4788	0.7578	0.170853
-1.4736	0.734	0.162447
-1.4824	0.7372	0.17217
-1.482	0.7032	0.176556
-1.4536	0.6612	0.18602
-1.438	0.7002	0.186331
-1.5036	0.748	0.169023
-1.4444	0.6624	0.173524
-1.4172	0.6666	0.187001
-1.4748	0.7	0.178773
-1.4912	0.7292	0.177946
-1.4552	0.7302	0.178487
-1.4956	0.7248	0.171521
-1.4796	0.7204	0.174142
-1.4736	0.712	0.172402
-1.4704	0.6968	0.177272
-1.4276	0.6462	0.181217
-1.51	0.7592	0.180725
-1.4912	0.7548	0.17462
-1.4692	0.7218	0.166807
-1.5008	0.7384	0.169741
-1.4496	0.7164	0.175146
-1.462	0.698	0.179944
-1.4948	0.7364	0.17472
-1.5244	0.789	0.165739
-1.4472	0.7242	0.172012
-1.5148	0.7612	0.177535
-1.5172	0.7662	0.169237
-1.458	0.6752	0.177643
-1.4556	0.6734	0.174121
-1.48	0.6916	0.177625
-1.4332	0.6646	0.181441
-1.44	0.6432	0.186829
-1.4796	0.7132	0.186716
-1.4484	0.7062	0.173133
-1.492	0.742	0.172835
-1.472	0.7018	0.172947
-1.4712	0.68	0.184583
-1.4996	0.7526	0.179385
-1.4604	0.7334	0.171354
-1.4956	0.7498	0.180138
-1.5192	0.773	0.168234
-1.5008	0.7692	0.166009
-1.4864	0.7062	0.179105
-1.4872	0.703	0.172686
-1.4632	0.6706	0.178986
-1.5168	0.7294	0.176626
-1.4984	0.749	0.173066
-1.4808	0.7438	0.165726
-1.4804	0.718	0.176997
-1.4996	0.7554	0.182079
-1.4852	0.755	0.17262
-1.5096	0.756	0.173373
-1.4976	0.7482	0.171407
-1.4816	0.7476	0.165031
-1.5196	0.8	0.167822
-1.4984	0.744	0.17088
-1.5136	0.7408	0.170882
-1.4496	0.7272	0.172
-1.5156	0.7594	0.172271
-1.5088	0.7702	0.166712
-1.4124	0.6674	0.17833
-1.462	0.7126	0.17394
-1.4648	0.7146	0.174608
-1.512	0.7416	0.174325
-1.5036	0.7632	0.175682
-1.5076	0.758	0.171862
-1.536	0.7192	0.168924
-1.4584	0.68	0.176694
-1.494	0.7214	0.185569
-1.4536	0.6512	0.181747
-1.4864	0.6886	0.187719
-1.4944	0.6672	0.182973
-1.448	0.6378	0.188739
-1.4732	0.6898	0.186978
-1.4784	0.6952	0.175905
-1.4992	0.7772	0.17745
-1.518	0.7522	0.174511
-1.4984	0.7348	0.173091
-1.4696	0.736	0.179518
-1.4728	0.6896	0.176254
-1.4936	0.6958	0.175867
-1.482	0.7098	0.179184
-1.4276	0.6782	0.17307
-1.5008	0.7674	0.174186
-1.4076	0.6714	0.180104
-1.4688	0.7074	0.17765
-1.4812	0.7136	0.178415
-1.5592	0.7454	0.167769
-1.4596	0.6324	0.174789
-1.4452	0.6364	0.184124
-1.4524	0.6714	0.183091
-1.5088	0.7324	0.172933
-1.4504	0.6862	0.180569
-1.4864	0.7122	0.183554
-1.4552	0.6534	0.183002
-1.454	0.6396	0.191139
-1.4536	0.6252	0.189434
-1.4612	0.6328	0.193186
-1.4596	0.6934	0.184227
-1.4364	0.64	0.177521
-1.4772	0.714	0.1802
-1.48	0.7766	0.169137
-1.4632	0.6888	0.172115
-1.5188	0.7202	0.180703
-1.4404	0.649	0.178172
-1.5128	0.7084	0.179273
-1.5424	0.8014	0.169123
-1.5008	0.74	0.171293
-1.4728	0.7484	0.180706
-1.4932	0.7556	0.169508
-1.4728	0.7548	0.16176
-1.4832	0.7508	0.168368
-1.5032	0.7536	0.172102
-1.54	0.761	0.172983
-1.4544	0.6774	0.180824
-1.444	0.6498	0.189916
-1.4752	0.6864	0.191943
-1.4368	0.6248	0.187628
-1.45	0.6406	0.181623
-1.438	0.637	0.184352
-1.4464	0.6504	0.183011
-1.5004	0.7252	0.185772
-1.4652	0.6862	0.181493
-1.434	0.658	0.189451
-1.5364	0.7164	0.17724
-1.4392	0.6846	0.182041
-1.4568	0.713	0.18221
-1.4548	0.7132	0.176655
-1.4504	0.6944	0.176568
-1.4144	0.6626	0.188083
-1.52	0.7638	0.171576
-1.4836	0.7408	0.177865
-1.4724	0.752	0.174512
-1.4828	0.7596	0.169664
-1.4464	0.7248	0.169946
-1.48	0.7284	0.177044
-1.4676	0.6838	0.173387
-1.444	0.647	0.183454
-1.476	0.566	0.187241
-1.4716	0.658	0.18018
-1.4528	0.6872	0.182452
-1.4876	0.6768	0.1784
-1.4104	0.6292	0.183768
-1.5024	0.6726	0.183067
-1.4508	0.657	0.18546
-1.4836	0.74	0.177561
-1.5332	0.7902	0.165813
-1.5064	0.7754	0.162288
-1.486	0.6716	0.169015
-1.47	0.7112	0.18306
-1.4484	0.7148	0.177754
-1.4948	0.718	0.181182
-1.47	0.6556	0.178164
-1.4108	0.6284	0.186676
-1.4876	0.6926	0.178865
-1.4524	0.697	0.176908
-1.4908	0.7272	0.172537
-1.474	0.6972	0.180768
-1.4136	0.6064	0.185784
-1.4516	0.6306	0.187865
-1.4352	0.5506	0.18788
-1.4296	0.5458	0.19356
-1.4156	0.5542	0.19252
-1.4104	0.5792	0.189047
-1.4528	0.5912	0.18974
-1.43	0.6536	0.18594
-1.458	0.6766	0.179347
-1.4552	0.6276	0.181723
-1.4556	0.5996	0.187146
-1.4824	0.6028	0.188388
-1.5024	0.656	0.180504
-1.4428	0.5394	0.184655
-1.4136	0.51	0.186755
-1.416	0.4574	0.188841
-1.4864	0.6062	0.184054
-1.466	0.621	0.185236
-1.4248	0.5568	0.186107
-1.4668	0.532	0.185386
-1.4484	0.4748	0.18927
-1.408	0.4746	0.192017
-1.4512	0.599	0.193764
-1.4696	0.6026	0.1848
-1.4416	0.5944	0.182805
-1.428	0.525	0.195709
-1.4436	0.5594	0.191896
-1.4532	0.6082	0.190874
-1.5356	0.7326	0.181318
-1.4988	0.7232	0.173545
-1.4484	0.6948	0.177776
-1.5	0.7418	0.174227
-1.4692	0.7058	0.18234
-1.4476	0.7006	0.17991
-1.498	0.7208	0.176505
-1.4876	0.7158	0.177007
-1.5108	0.7464	0.173183
-1.4376	0.6912	0.175004
-1.4412	0.7014	0.172293
-1.536	0.7978	0.169004
-1.4956	0.7418	0.16938
-1.4956	0.7404	0.177473
-1.418	0.6342	0.181783
-1.514	0.761	0.180186
-1.502	0.7578	0.174116
-1.508	0.7574	0.169488
-1.4404	0.6904	0.176325
-1.5176	0.7874	0.167467
-1.45	0.7114	0.162756
-1.4992	0.7148	0.174865
-1.4852	0.7006	0.179013
-1.4884	0.7524	0.174387
-1.4792	0.723	0.174933
-1.502	0.733	0.172804
-1.4992	0.7688	0.172629
-1.4964	0.7544	0.173136
-1.4916	0.7196	0.180524
-1.4636	0.676	0.179656
-1.4512	0.6826	0.180993
-1.514	0.776	0.172559
-1.5016	0.7586	0.170383
-1.5232	0.7948	0.171129
-1.5196	0.756	0.165976
-1.4708	0.7262	0.171967
-1.5096	0.7882	0.169986
-1.52	0.7832	0.166315
-1.4436	0.7208	0.169998
-1.47	0.7054	0.175191
-1.4144	0.6738	0.179418
-1.454	0.6794	0.185442
-1.4884	0.76	0.174823
-1.51	0.7714	0.172911
-1.4504	0.6656	0.172587
-1.4208	0.5998	0.192043
-1.4532	0.6744	0.186295
-1.4104	0.6346	0.184659
-1.4552	0.6916	0.190907
-1.4612	0.7258	0.179881
-1.4768	0.7516	0.176453
-1.4536	0.7392	0.177602
-1.4676	0.7346	0.175981
-1.4972	0.76	0.175975
-1.5668	0.8182	0.166849
-1.4908	0.738	0.168971
-1.46	0.6906	0.175309
-1.446	0.698	0.175027
-1.5124	0.732	0.176898
-1.412	0.6336	0.18178
-1.4724	0.6736	0.178128
-1.4532	0.6138	0.182537
-1.4792	0.7088	0.177871
-1.4772	0.7094	0.174343
-1.4504	0.671	0.184594
-1.4768	0.71	0.182217
-1.4404	0.6708	0.1825
-1.4492	0.7076	0.180004
-1.4504	0.6498	0.171695
-1.524	0.7746	0.183216
-1.4936	0.778	0.171391
-1.4708	0.7098	0.175563
-1.5104	0.751	0.169846
-1.4744	0.72	0.168615
-1.4696	0.722	0.178766
-1.4948	0.7594	0.172553
-1.5276	0.781	0.163514
-1.4288	0.7018	0.17271
-1.526	0.7618	0.16998
-1.4552	0.6936	0.180131
-1.516	0.7398	0.175181
-1.4012	0.588	0.183343
-1.436	0.6478	0.187647
-1.4472	0.5982	0.184354
-1.4704	0.6676	0.187125
-1.486	0.7264	0.177874
-1.4808	0.6894	0.177323
-1.46	0.6178	0.188822
-1.4556	0.6062	0.187424
-1.4332	0.6458	0.18905
-1.452	0.6804	0.183131
-1.466	0.6858	0.180593
-1.5072	0.7574	0.171006
-1.5112	0.754	0.170637
-1.5248	0.7954	0.169957
-1.4756	0.6996	0.173191
-1.5036	0.6944	0.179626
-1.466	0.6206	0.186571
-1.4332	0.6102	0.1795
-1.4636	0.6002	0.178174
-1.4576	0.69	0.179797
-1.476	0.6862	0.175969
-1.4936	0.729	0.178986
-1.5304	0.78	0.163961
-1.4528	0.7018	0.170879
-1.4748	0.7206	0.178504
-1.4636	0.731	0.182062
-1.4588	0.6834	0.171142
-1.5032	0.773	0.173722
-1.4796	0.7076	0.167691
-1.442	0.658	0.189388
-1.48	0.6464	0.18074
-1.4564	0.7072	0.178442
-1.5148	0.7118	0.180355
-1.5144	0.7576	0.170389
-1.4596	0.6946	0.170073
-1.4664	0.6802	0.179566
-1.3992	0.5978	0.19694
-1.4856	0.6718	0.190884
-1.4428	0.6854	0.175734
-1.5068	0.7648	0.175429
-1.4308	0.6212	0.174412
-1.4612	0.649	0.191049
-1.5268	0.7256	0.178861
-1.4904	0.745	0.177905
-1.4656	0.7386	0.17557
-1.5448	0.762	0.175763
-1.4692	0.6866	0.171653
-1.4488	0.6814	0.18233
-1.4992	0.7252	0.184717
-1.4436	0.628	0.181254
-1.4888	0.6588	0.182626
-1.4772	0.6482	0.185787
-1.4228	0.6108	0.182687
-1.4236	0.517	0.190731
-1.4384	0.5678	0.194592
-1.4396	0.5338	0.190756
-1.394	0.4588	0.189533
-1.4256	0.5884	0.192434
-1.4792	0.6458	0.184811
-1.466	0.606	0.181769
-1.4664	0.646	0.187036
-1.38	0.5044	0.188798
-1.408	0.5706	0.198457
-1.4752	0.6608	0.184499
-1.4792	0.684	0.18376
-1.486	0.7524	0.17477
-1.4964	0.7452	0.168418
-1.5164	0.78	0.166098
-1.454	0.7258	0.165971
-1.5044	0.7144	0.176361
-1.5032	0.722	0.17624
-1.4812	0.722	0.17808
-1.458	0.6948	0.182524
-1.4136	0.6516	0.185106
-1.4464	0.6496	0.181524
-1.426	0.6064	0.19402
-1.432	0.6298	0.187433
-1.508	0.7264	0.178779
-1.4724	0.6552	0.178876
-1.4772	0.697	0.182647
-1.4444	0.6904	0.175325
-1.4576	0.7288	0.178496
-1.4924	0.7436	0.176592
-1.48	0.729	0.183607
-1.48	0.753	0.175432
-1.4824	0.7088	0.177669
-1.4832	0.7024	0.18009
-1.4692	0.6968	0.181996
-1.4396	0.694	0.18593
-1.5056	0.7428	0.175798
-1.4536	0.7462	0.171393
-1.4476	0.7048	0.167683
-1.4728	0.73	0.180618
-1.4456	0.6472	0.179712
-1.5048	0.7016	0.176318
-1.46	0.6444	0.180344
-1.4336	0.6064	0.194406
-1.4696	0.6536	0.186364
-1.4868	0.6734	0.178355
-1.4464	0.628	0.177197
-1.4796	0.6582	0.183819
-1.49	0.7032	0.177855
-1.4556	0.7222	0.176175
-1.4568	0.6552	0.176575
-1.4256	0.6736	0.184464
-1.5216	0.735	0.178061
-1.4664	0.734	0.174073
-1.4556	0.72	0.173244
-1.4752	0.6744	0.187442
-1.4516	0.691	0.188847
-1.4132	0.6096	0.191651
-1.4216	0.549	0.192371
-1.4676	0.6814	0.18545
-1.4644	0.6414	0.175818
-1.4524	0.6526	0.187814
-1.4256	0.6284	0.185007
-1.4312	0.5498	0.189821
-1.474	0.676	0.186705
-1.4192	0.5994	0.188517
-1.4448	0.6246	0.184622
-1.4504	0.6626	0.193432
-1.4404	0.6568	0.183189
-1.4928	0.7004	0.182004
-1.4456	0.6904	0.17908
-1.462	0.6952	0.183464
-1.5132	0.7832	0.170768
-1.5064	0.7618	0.169129
-1.5032	0.769	0.164604
-1.5204	0.7722	0.165542
-1.4908	0.7442	0.16725
-1.4636	0.7004	0.176151
-1.532	0.7868	0.177782
-1.4844	0.7522	0.167971
-1.4928	0.761	0.17718
-1.49	0.7494	0.170718
-1.4996	0.7386	0.164656
-1.4896	0.7134	0.168744
-1.4632	0.706	0.179693
-1.5256	0.7826	0.175025
-1.5228	0.7702	0.172674
-1.488	0.6962	0.17176
-1.418	0.5446	0.183956
-1.438	0.536	0.193847
-1.4396	0.6152	0.191762
-1.4456	0.5656	0.185536
-1.498	0.6154	0.184625
-1.4124	0.585	0.180434
-1.4344	0.5558	0.183862
-1.4476	0.542	0.184261
-1.4916	0.626	0.187658
-1.5028	0.6836	0.179452
-1.5172	0.7476	0.169306
-1.488	0.7254	0.171853
-1.4888	0.721	0.182238
-1.4616	0.7026	0.180128
-1.4588	0.7048	0.185751
-1.428	0.6874	0.177187
-1.428	0.667	0.183792
-1.5316	0.702	0.177333
-1.4584	0.6488	0.180646
-1.4724	0.671	0.181615
-1.4492	0.6148	0.184945
-1.4372	0.6328	0.19168
-1.5196	0.7322	0.177349
-1.4888	0.771	0.166198
-1.4812	0.7436	0.169403
-1.51	0.7374	0.174747
-1.5216	0.774	0.173781
-1.4548	0.6426	0.178363
-1.4776	0.7034	0.180024
-1.4384	0.7048	0.179707
-1.5156	0.7614	0.173535
-1.4764	0.7182	0.169002
-1.5176	0.7548	0.173765
-1.496	0.736	0.175336
-1.522	0.7886	0.171967
-1.4776	0.7192	0.168119
-1.4388	0.7186	0.173489
-1.5392	0.749	0.173602
-1.4944	0.6712	0.170455
-1.4284	0.5758	0.185933
-1.4492	0.631	0.190718
-1.4776	0.7178	0.179596
-1.4752	0.6942	0.175516
-1.4272	0.6606	0.186988
-1.48	0.7114	0.179222
-1.482	0.6956	0.181527
-1.436	0.6526	0.182895
-1.5116	0.7514	0.183698
-1.5044	0.7864	0.164373
-1.5024	0.7536	0.164214
-1.4604	0.731	0.171153
-1.4704	0.7244	0.177083
-1.4976	0.78	0.173708
-1.4356	0.6848	0.167206
-1.4796	0.7484	0.178914
-1.5124	0.727	0.174351
-1.4252	0.6562	0.17697
-1.4704	0.5876	0.179711
-1.4744	0.666	0.187094
-1.4536	0.7022	0.181641
-1.4632	0.7028	0.182101
-1.5084	0.7406	0.181813
-1.4952	0.7138	0.173512
-1.4812	0.697	0.18074
-1.4728	0.763	0.170344
-1.4676	0.7254	0.16834
-1.4696	0.7616	0.165887
-1.4924	0.714	0.17277
-1.4684	0.6942	0.182777
-1.4984	0.7598	0.165846
-1.4976	0.7422	0.169322
-1.4952	0.7612	0.174045
-1.5064	0.7446	0.170467
-1.4532	0.6646	0.181064
-1.4772	0.6638	0.18221
-1.4812	0.699	0.177618
-1.4916	0.7684	0.178373
-1.4976	0.7662	0.168189
-1.4892	0.7142	0.176126
-1.4808	0.745	0.179604
-1.47	0.7168	0.174351
-1.5068	0.7242	0.177473
-1.4508	0.6982	0.182184
-1.478	0.677	0.181558
-1.4688	0.7272	0.177687
-1.4496	0.7452	0.171232
-1.4776	0.7238	0.174209
-1.4088	0.6442	0.18468
-1.4516	0.6802	0.184668
-1.4732	0.689	0.187844
-1.4492	0.681	0.17254
-1.4984	0.6896	0.177951
-1.4876	0.6448	0.179726
-1.4824	0.685	0.181293
-1.506	0.6664	0.180999
-1.4644	0.6472	0.182544
-1.4928	0.6982	0.175507
-1.4836	0.7376	0.173819
-1.4108	0.645	0.175885
-1.4708	0.7042	0.19025
-1.4788	0.7258	0.173968
-1.4464	0.6454	0.179318
-1.47	0.7444	0.176473
-1.4656	0.7314	0.168955
-1.4192	0.6566	0.17971
-1.4936	0.7248	0.181775
-1.508	0.7764	0.168408
-1.4628	0.7604	0.16953
-1.4688	0.7574	0.165959
-1.4712	0.7174	0.170404
-1.504	0.7558	0.17774
-1.4368	0.699	0.180502
-1.5064	0.78	0.170651
-1.4784	0.7652	0.174078
-1.4664	0.7264	0.175066
-1.5012	0.7436	0.173834
-1.4964	0.711	0.177035
-1.4692	0.7198	0.1674
-1.4492	0.7182	0.182706
-1.4712	0.7114	0.174796
-1.4564	0.7048	0.178189
-1.4764	0.7212	0.172582
-1.4768	0.753	0.168301
-1.4508	0.6776	0.179523
-1.5032	0.742	0.174798
-1.438	0.6918	0.167431
-1.504	0.7662	0.17497
-1.4868	0.7688	0.169491
-1.424	0.6944	0.16301
-1.4668	0.6864	0.18599
-1.4304	0.6718	0.179819
-1.4956	0.7474	0.178624
-1.5052	0.7486	0.173052
-1.4532	0.7286	0.170096
-1.5172	0.7552	0.173737
-1.4788	0.7048	0.175924
-1.406	0.6778	0.191363
-1.4524	0.683	0.181636
-1.5372	0.7616	0.171661
-1.4652	0.7424	0.169304
-1.4256	0.6274	0.181861
-1.4828	0.6686	0.182542
-1.4836	0.692	0.185879
-1.4668	0.7164	0.177894
-1.5056	0.763	0.172857
-1.4952	0.7322	0.169854
-1.4644	0.6864	0.177775
-1.4632	0.7054	0.178353
-1.5168	0.7846	0.174956
-1.4976	0.747	0.164764
-1.4492	0.6904	0.168651
-1.4968	0.746	0.176616
-1.4916	0.6948	0.173896
-1.4628	0.7344	0.179896
-1.4736	0.6888	0.176112
-1.4652	0.7046	0.170541
-1.5004	0.7608	0.168123
-1.5148	0.7638	0.170759
-1.4856	0.7476	0.169903
-1.4748	0.7342	0.171981
-1.4684	0.7382	0.173492
-1.4992	0.7584	0.175499
-1.4608	0.7348	0.178954
-1.5188	0.7704	0.175336
-1.4496	0.6914	0.176305
-1.4824	0.7358	0.176698
-1.494	0.7296	0.175997
-1.4552	0.6736	0.177998
-1.4948	0.7196	0.18005
-1.482	0.675	0.172731
-1.4632	0.7198	0.180624
-1.4648	0.7032	0.178787
-1.5076	0.7246	0.177937
-1.476	0.698	0.174207
-1.4664	0.6956	0.177676
-1.4976	0.7512	0.171912
-1.508	0.7184	0.171418
-1.3992	0.6778	0.180037
-1.4968	0.79	0.170479
-1.4676	0.7384	0.170906
-1.4784	0.7058	0.171651
-1.4592	0.7066	0.182374
-1.5236	0.741	0.175314
-1.454	0.6764	0.179707
-1.4404	0.7186	0.183453
-1.4744	0.6724	0.187405
-1.446	0.6978	0.180971
-1.488	0.7276	0.174167
-1.4736	0.6742	0.173949
-1.4548	0.68	0.176825
-1.4516	0.6908	0.176406
-1.4772	0.6634	0.182295
-1.496	0.7432	0.177545
-1.5332	0.779	0.175221
-1.4516	0.7274	0.174834
-1.4752	0.701	0.171072
-1.438	0.6768	0.180667
-1.4244	0.5708	0.191862
-1.458	0.6452	0.19061
-1.4272	0.6522	0.179195
-1.418	0.6614	0.183056
-1.4904	0.716	0.179571
-1.478	0.6598	0.178325
-1.452	0.6608	0.188221
-1.4272	0.627	0.187703
-1.4424	0.6294	0.188948
-1.4444	0.6162	0.195116
-1.4636	0.6886	0.185776
-1.5352	0.8022	0.169738
-1.4632	0.7246	0.173428
-1.4448	0.6642	0.177792
-1.444	0.5984	0.191275
-1.4584	0.6144	0.184958
-1.4636	0.5496	0.18313
-1.4584	0.5756	0.19606
-1.4372	0.4626	0.188395
-1.4328	0.535	0.18906
-1.3964	0.5526	0.189376
-1.4732	0.7074	0.18441
-1.418	0.6104	0.188823
-1.434	0.6246	0.185311
-1.442	0.574	0.189841
-1.43	0.647	0.189081
-1.4976	0.7156	0.176707
-1.4816	0.7492	0.170244
-1.4444	0.7106	0.185285
-1.4652	0.7122	0.180366
-1.4932	0.7084	0.177661
-1.4708	0.7176	0.177346
-1.4232	0.656	0.178902
-1.494	0.7206	0.185201
-1.4692	0.7384	0.170611
-1.5	0.7544	0.17246
-1.4588	0.7114	0.171317
-1.4824	0.716	0.178855
-1.4692	0.7116	0.181726
-1.4796	0.6606	0.177931
-1.4384	0.649	0.183572
-1.476	0.572	0.182929
-1.424	0.4922	0.190187
-1.464	0.5462	0.197196
-1.4512	0.4758	0.191232
-1.4208	0.492	0.195927
-1.4492	0.5224	0.199622
-1.4324	0.5552	0.19181
-1.4244	0.6172	0.189396
-1.42	0.5564	0.192628
-1.444	0.6476	0.194224
-1.5192	0.712	0.176878
-1.4984	0.7212	0.17816
-1.4476	0.6122	0.182653
-1.4224	0.6652	0.187765
-1.4684	0.7056	0.178842
-1.468	0.682	0.179728
-1.502	0.7772	0.181638
-1.4948	0.732	0.165962
-1.4456	0.7012	0.176574
-1.4504	0.7072	0.176996
-1.4092	0.6362	0.180959
-1.4816	0.7274	0.185652
-1.5052	0.762	0.169851
-1.488	0.7212	0.17866
-1.49	0.7226	0.180467
-1.4876	0.7226	0.172814
-1.474	0.708	0.176433
-1.4804	0.6714	0.175927
-1.4884	0.6712	0.184127
-1.4772	0.656	0.180462
-1.46	0.681	0.190527
-1.4408	0.6738	0.180584
-1.432	0.6572	0.187515
-1.446	0.6654	0.187799
-1.4468	0.6494	0.183282
-1.454	0.6752	0.184037
-1.4984	0.6938	0.182151
-1.4944	0.7632	0.172605
-1.5288	0.7814	0.160733
-1.47	0.6742	0.173606
-1.4016	0.6084	0.189043
-1.4536	0.6236	0.19197
-1.4164	0.5926	0.189285
-1.4344	0.575	0.192098
-1.4072	0.5508	0.195963
-1.4696	0.5836	0.191434
-1.4496	0.6754	0.182693
-1.4928	0.7274	0.180124
-1.4856	0.724	0.168407
-1.438	0.693	0.177649
-1.442	0.6788	0.175523
-1.472	0.702	0.176794
-1.494	0.7172	0.17565
-1.4732	0.6848	0.182346
-1.4476	0.7232	0.18359
-1.4956	0.7782	0.173577
-1.466	0.7136	0.169211
-1.4688	0.7472	0.178658
-1.496	0.7268	0.174648
-1.4424	0.6986	0.177425
-1.4528	0.6654	0.175752
-1.4356	0.6234	0.178876
-1.4372	0.6174	0.188272
-1.4276	0.5878	0.19203
-1.4692	0.6116	0.181605
-1.436	0.57	0.182162
-1.4416	0.6902	0.186099
-1.4868	0.7116	0.175877
-1.434	0.6578	0.180861
-1.5048	0.74	0.179807
-1.4808	0.7352	0.175336
-1.474	0.7168	0.171858
-1.5072	0.783	0.167535
-1.4316	0.6736	0.172823
-1.438	0.6398	0.186711
-1.4824	0.7186	0.181964
-1.3952	0.6222	0.184128
-1.4648	0.727	0.181104
-1.5436	0.7692	0.178031
-1.4956	0.7496	0.167536
-1.4848	0.741	0.166705
-1.5296	0.774	0.166983
-1.4368	0.6494	0.182127
-1.4388	0.6878	0.18337
-1.4856	0.736	0.172407
-1.5104	0.7534	0.168371
-1.5072	0.7214	0.173732
-1.4672	0.6716	0.184385
-1.5056	0.7286	0.176795
-1.5204	0.7564	0.176625
-1.4516	0.6778	0.182345
-1.4172	0.6968	0.180417
-1.5124	0.7642	0.175715
-1.4972	0.734	0.173775
-1.522	0.7844	0.166788
-1.4984	0.7468	0.164872
-1.4676	0.734	0.176106
-1.478	0.6896	0.179042
-1.4792	0.6854	0.178817
-1.5024	0.671	0.179816
-1.4472	0.6096	0.178279
-1.5036	0.6524	0.174948
-1.4584	0.6738	0.179231
-1.4908	0.7028	0.184167
-1.4932	0.7488	0.174436
-1.5128	0.7462	0.178507
-1.5016	0.7654	0.169358
-1.5344	0.763	0.176422
-1.454	0.714	0.173351
-1.4992	0.78	0.173592
-1.4792	0.7288	0.17311
-1.4804	0.7442	0.169383
-1.4976	0.754	0.172671
-1.4896	0.7038	0.172271
-1.478	0.694	0.175989
-1.4156	0.578	0.190464
-1.4812	0.623	0.186401
-1.5176	0.7546	0.181218
-1.4884	0.7608	0.174309
-1.4392	0.6928	0.173052
-1.5112	0.7438	0.178559
-1.48	0.7176	0.177359
-1.4612	0.657	0.183677
-1.438	0.7052	0.182381
-1.4576	0.6814	0.171765
-1.4556	0.6734	0.183216
-1.4548	0.6732	0.178051
-1.4376	0.626	0.18428
-1.5004	0.616	0.182432
-1.4644	0.6378	0.177659
-1.4404	0.5346	0.18453
-1.4256	0.5682	0.197292
-1.4404	0.6592	0.193215
-1.4652	0.6462	0.184269
-1.4776	0.6966	0.181388
-1.4528	0.6978	0.17681
-1.4856	0.7128	0.171423
-1.4812	0.658	0.1815
-1.5124	0.737	0.182503
-1.5168	0.731	0.177248
-1.508	0.7204	0.172099
-1.4848	0.7278	0.176099
-1.4736	0.7096	0.183015
-1.472	0.7392	0.17176
-1.4428	0.6906	0.181823
-1.4384	0.671	0.181418
-1.4484	0.6786	0.180684
-1.41	0.626	0.189623
-1.4848	0.6866	0.180541
-1.4976	0.699	0.180982
-1.4592	0.6546	0.182696
-1.456	0.6648	0.181665
-1.4236	0.6302	0.183987
-1.3964	0.5482	0.192596
-1.4268	0.5512	0.195621
-1.4004	0.5458	0.197799
-1.4308	0.548	0.200641
-1.4524	0.6508	0.196942
-1.4316	0.5942	0.187887
-1.4476	0.5478	0.196002
-1.4596	0.5762	0.18934
-1.4764	0.6112	0.189053
-1.4424	0.6584	0.181856
-1.4944	0.6816	0.180814
-1.4876	0.642	0.17631
-1.4912	0.7088	0.175864
-1.4592	0.7058	0.182265
-1.4696	0.738	0.175777
-1.4828	0.7322	0.168399
-1.446	0.6914	0.180238
-1.4852	0.7368	0.176217
-1.4964	0.7786	0.173413
-1.4604	0.7272	0.168875
-1.4716	0.7422	0.182727
-1.508	0.7828	0.165537
-1.4928	0.7388	0.170066
-1.4872	0.7428	0.17125
-1.476	0.7304	0.178954
-1.4268	0.6598	0.183831
-1.43	0.6942	0.18994
-1.4828	0.7318	0.182948
-1.464	0.7532	0.170593
-1.4864	0.7534	0.167783
-1.45	0.7292	0.175981
-1.4256	0.6426	0.184079
-1.4504	0.7012	0.183499
-1.4724	0.7416	0.176672
-1.4488	0.6768	0.171376
-1.5356	0.7666	0.177965
-1.4844	0.7396	0.169593
-1.486	0.7338	0.173545
-1.4364	0.6658	0.181024
-1.4836	0.758	0.178469
-1.4736	0.6656	0.171514
-1.4556	0.6756	0.184298
-1.3768	0.6264	0.184732
-1.432	0.6474	0.192945
-1.4908	0.7248	0.185633
-1.4356	0.6582	0.179455
-1.4732	0.7032	0.181323
-1.4252	0.6356	0.187972
-1.4604	0.686	0.183266
-1.4548	0.6958	0.181463
-1.4876	0.7424	0.174391
-1.4704	0.6962	0.179685
-1.4612	0.737	0.171902
-1.522	0.7774	0.177462
-1.49	0.7278	0.163692
-1.4952	0.7528	0.179263
-1.5024	0.7454	0.174089
-1.4988	0.744	0.168157
-1.4592	0.6846	0.177997
-1.462	0.7234	0.184242
-1.4968	0.736	0.169243
-1.5116	0.7474	0.173637
-1.4632	0.7412	0.172069
-1.4828	0.7418	0.176323
-1.4584	0.701	0.16966
-1.4932	0.7236	0.176945
-1.4868	0.734	0.17462
-1.4568	0.6818	0.174513
-1.5244	0.7452	0.172735
-1.4792	0.7106	0.175041
-1.5332	0.7382	0.177202
-1.4524	0.686	0.180663
-1.4792	0.7118	0.177453
-1.4924	0.7128	0.174649
-1.4436	0.6	0.18748
-1.4456	0.619	0.188311
-1.4292	0.6172	0.185533
-1.4236	0.5782	0.192851
-1.4664	0.7108	0.186937
-1.494	0.6542	0.179137
-1.4652	0.6304	0.182207
-1.4232	0.5256	0.183896
-1.4068	0.5858	0.191125
-1.4224	0.6474	0.1855
-1.4228	0.628	0.186711
-1.486	0.7156	0.18277
-1.4872	0.705	0.178611
-1.4932	0.676	0.183303
-1.4804	0.7152	0.18147
-1.52	0.7604	0.173404
-1.5004	0.754	0.17171
-1.5144	0.7934	0.167303
-1.5672	0.8166	0.165068
-1.4908	0.7354	0.166524
-1.4984	0.7408	0.169825
-1.4652	0.7664	0.169068
-1.464	0.684	0.176696
-1.446	0.695	0.182843
-1.5044	0.7538	0.177258
-1.4832	0.717	0.174404
-1.482	0.7044	0.179029
-1.4324	0.6598	0.179245
-1.4804	0.7384	0.178301
-1.4932	0.7454	0.175107
-1.466	0.7078	0.175792
-1.452	0.6856	0.178911
-1.4652	0.7164	0.182242
-1.49	0.7674	0.168425
-1.4612	0.703	0.17223
-1.5016	0.7698	0.17621
-1.4624	0.7408	0.170503
-1.4844	0.728	0.17554
-1.502	0.7502	0.176959
-1.4736	0.7112	0.175665
-1.4668	0.7528	0.170482
-1.4564	0.69	0.17576
-1.4524	0.6856	0.185278
-1.5028	0.7354	0.181891
-1.4848	0.7214	0.176506
-1.5156	0.7664	0.176147
-1.4688	0.7024	0.178406
-1.47	0.7212	0.182022
-1.4948	0.7536	0.169482
-1.4852	0.7426	0.169049
-1.4784	0.637	0.181776
-1.4592	0.6574	0.18589
-1.4108	0.5814	0.19013
-1.4272	0.6314	0.195384
-1.4248	0.5654	0.189458
-1.4648	0.6018	0.190788
-1.4276	0.6102	0.193058
-1.4888	0.764	0.190521
-1.4808	0.7568	0.16713
-1.5092	0.757	0.178937
-1.436	0.678	0.186043
-1.4264	0.6864	0.181102
-1.456	0.7164	0.17408
-1.4612	0.766	0.168222
-1.4692	0.7032	0.171442
-1.5108	0.7578	0.170873
-1.4952	0.7516	0.173735
-1.4584	0.7182	0.175355
-1.4572	0.6586	0.184654
-1.4528	0.6084	0.184693
-1.458	0.6764	0.185214
-1.4724	0.7246	0.170645
-1.4716	0.7042	0.175552
-1.4544	0.6206	0.19318
-1.4332	0.617	0.189148
-1.478	0.7268	0.175789
-1.5208	0.7604	0.17439
-1.472	0.7124	0.168336
-1.4688	0.715	0.177543
-1.4884	0.7086	0.17264
-1.4604	0.6822	0.181502
-1.4928	0.7432	0.177633
-1.472	0.7364	0.172784
-1.5088	0.7414	0.182061
-1.4832	0.7466	0.173934
-1.494	0.7588	0.173403
-1.4872	0.7538	0.168175
-1.4896	0.7652	0.174237
-1.484	0.7006	0.174773
-1.468	0.6732	0.176283
-1.4836	0.6996	0.175682
-1.448	0.6798	0.178789
-1.5028	0.6586	0.187522
-1.4368	0.6314	0.180374
-1.468	0.622	0.176917
-1.468	0.6164	0.184304
-1.4724	0.6744	0.18189
-1.4316	0.6522	0.182885
-1.5244	0.755	0.172566
-1.5032	0.761	0.176008
-1.4868	0.7328	0.174421
-1.4464	0.708	0.176814
-1.4588	0.6566	0.176857
-1.4948	0.6824	0.180753
-1.4684	0.6086	0.185581
-1.466	0.6216	0.185251
-1.474	0.5916	0.18672
-1.4444	0.608	0.190702
-1.4072	0.5566	0.189399
-1.4076	0.5108	0.200163
-1.4536	0.541	0.190143
-1.4392	0.5612	0.192333
-1.4364	0.5652	0.193498
-1.408	0.5608	0.18645
-1.4544	0.508	0.19349
-1.472	0.4638	0.187581
-1.436	0.4806	0.1924
-1.4428	0.471	0.200158
-1.354	0.3472	0.206227
-1.4088	0.4364	0.210196
-1.3804	0.3536	0.200856
-1.4308	0.2894	0.202531
-1.4436	0.3054	0.200934
-1.4136	0.331	0.20012
-1.4528	0.3746	0.190626
-1.4328	0.2998	0.187514
-1.398	0.237	0.19595
-1.4308	0.2818	0.202352
-1.4604	0.3734	0.191668
-1.4048	0.3868	0.185943
-1.4896	0.3576	0.19229
-1.4436	0.34	0.187392
-1.4332	0.3594	0.185797
-1.3616	0.2082	0.200212
-1.3796	0.3256	0.203381
-1.4308	0.3268	0.193082
-1.426	0.4518	0.191331
-1.44	0.5292	0.190603
-1.402	0.572	0.188998
-1.4376	0.6314	0.185333
-1.4716	0.6082	0.182968
-1.4768	0.5886	0.182372
-1.4796	0.6152	0.181249
-1.4388	0.5968	0.19211
-1.506	0.7088	0.185504
-1.4708	0.6388	0.179532
-1.418	0.6144	0.183924
-1.4852	0.6834	0.176817
