# nm = 1024 nc = 100 len = 40 extf = 0 beta = 0.456
#energy 	magnetization 	acceptance
-1.5225	0.8025	0.138212
-1.54	0.77125	0.136731
-1.6775	0.88875	0.146062
-1.625	0.8575	0.142581
-1.6175	0.8675	0.135662
-1.5375	0.75375	0.140819
-1.485	0.725	0.157244
-1.555	0.795	0.16095
-1.53	0.69875	0.149444
-1.465	0.63375	0.157012
-1.455	0.63625	0.1664
-1.5	0.61875	0.1785
-1.5425	0.80875	0.163538
-1.595	0.8475	0.152956
-1.58	0.8125	0.150612
-1.505	0.7825	0.144638
-1.5175	0.79375	0.144256
-1.5875	0.835	0.134494
-1.5825	0.8275	0.130213
-1.6525	0.84	0.138287
-1.6	0.84875	0.134931
-1.55	0.78625	0.139175
-1.6775	0.87875	0.139913
-1.64	0.8325	0.130206
-1.6175	0.8325	0.140113
-1.345	0.68	0.146712
-1.5275	0.79375	0.150419
-1.505	0.755	0.149219
-1.525	0.7975	0.148125
-1.5375	0.71625	0.156019
-1.585	0.83875	0.1481
-1.525	0.8	0.143481
-1.5475	0.7875	0.137487
-1.525	0.76875	0.148981
-1.5125	0.745	0.141506
-1.505	0.725	0.162175
-1.57	0.8	0.1549
-1.6675	0.8725	0.147788
-1.7	0.88125	0.144506
-1.52	0.8	0.145219
-1.535	0.815	0.1412
-1.605	0.83875	0.131406
-1.51	0.8	0.152406
-1.3775	0.7625	0.147175
-1.465	0.76625	0.134956
-1.5125	0.73125	0.1577
-1.5675	0.83	0.143981
-1.52	0.79375	0.141981
-1.69	0.89625	0.143425
-1.54	0.74625	0.141662
-1.7075	0.91375	0.1413
-1.5525	0.8	0.149919
-1.5975	0.83125	0.137431
-1.58	0.8075	0.144994
-1.5	0.77375	0.147319
-1.5825	0.81125	0.152737
-1.42	0.47625	0.161225
-1.43	0.6175	0.193694
-1.59	0.83875	0.181381
-1.4175	0.48	0.166019
-1.4325	0.42625	0.184856
-1.5	0.76375	0.177638
-1.63	0.8525	0.145044
-1.6	0.8175	0.144912
-1.525	0.77875	0.152269
-1.6525	0.86	0.149794
-1.5725	0.81	0.1406
-1.58	0.77875	0.145594
-1.71	0.90125	0.14375
-1.6075	0.84125	0.146712
-1.6925	0.895	0.137219
-1.6175	0.835	0.125188
-1.6675	0.86125	0.145194
-1.38	0.62625	0.144388
-1.4575	0.68625	0.172162
-1.5125	0.8125	0.163394
-1.5325	0.81625	0.123106
-1.6975	0.89	0.147006
-1.6125	0.81875	0.124756
-1.53	0.7675	0.136244
-1.5825	0.84375	0.140844
-1.5475	0.53125	0.17455
-1.5125	0.61625	0.171875
-1.625	0.85125	0.160325
-1.5025	0.76	0.140769
-1.56	0.80125	0.160256
-1.545	0.795	0.142731
-1.4475	0.48875	0.169819
-1.4825	0.60375	0.1828
-1.585	0.825	0.166381
-1.5575	0.8225	0.129575
-1.6175	0.83375	0.139144
-1.5325	0.83375	0.140325
-1.62	0.8375	0.145281
-1.4925	0.66375	0.156006
-1.575	0.77125	0.148175
-1.6525	0.895	0.141594
-1.445	0.695	0.153475
-1.64	0.86125	0.145181
-1.525	0.795	0.141481
-1.575	0.84125	0.144444
-1.5425	0.80875	0.138662
-1.66	0.88625	0.145813
-1.5975	0.83375	0.140288
-1.4775	0.79125	0.140962
-1.4925	0.81375	0.137662
-1.58	0.79125	0.145113
-1.695	0.8775	0.145144
-1.605	0.845	0.141387
-1.61	0.85125	0.141781
-1.63	0.8325	0.139606
-1.625	0.855	0.138987
-1.565	0.7975	0.129013
-1.655	0.87	0.152863
-1.4675	0.69625	0.170781
-1.685	0.85375	0.154187
-1.6925	0.88375	0.149462
-1.57	0.825	0.145031
-1.545	0.81	0.137712
-1.4975	0.73	0.132525
-1.6175	0.84	0.148425
-1.565	0.8025	0.15635
-1.555	0.79125	0.127319
-1.4675	0.74875	0.138
-1.5725	0.8525	0.134144
-1.635	0.84625	0.144131
-1.565	0.7625	0.165619
-1.655	0.8675	0.1408
-1.5325	0.71875	0.152369
-1.4675	0.6425	0.167469
-1.53	0.78875	0.167781
-1.5375	0.81	0.149981
-1.6375	0.8825	0.142613
-1.5425	0.7325	0.145562
-1.525	0.7125	0.175787
-1.645	0.875	0.137075
-1.455	0.7275	0.129037
-1.6525	0.85625	0.138444
-1.535	0.8025	0.137719
-1.67	0.8775	0.142575
-1.495	0.77	0.1391
-1.7375	0.92	0.148363
-1.62	0.81125	0.139356
-1.605	0.8325	0.138644
-1.5175	0.76875	0.141831
-1.5425	0.8325	0.142744
-1.5475	0.795	0.13255
-1.5125	0.7775	0.156688
-1.48	0.78125	0.140881
-1.51	0.77125	0.1499
-1.5325	0.79125	0.14305
-1.5075	0.8	0.137669
-1.585	0.79875	0.145369
-1.5075	0.80125	0.149888
-1.5425	0.79	0.152344
-1.595	0.82625	0.139806
-1.5075	0.77625	0.142538
-1.535	0.8275	0.148731
-1.495	0.78375	0.141781
-1.5525	0.8025	0.139956
-1.485	0.72875	0.137206
-1.5875	0.8125	0.158194
-1.57	0.81125	0.150806
-1.5225	0.71875	0.161612
-1.5575	0.8	0.169756
-1.585	0.85	0.148688
-1.6175	0.84	0.147675
-1.555	0.81125	0.139894
-1.55	0.8275	0.132781
-1.6025	0.8275	0.139775
-1.6375	0.8525	0.146062
-1.52	0.7675	0.141387
-1.635	0.86875	0.138944
-1.4275	0.71625	0.146225
-1.5025	0.775	0.171869
-1.4925	0.735	0.14315
-1.48	0.71125	0.146181
-1.5075	0.7325	0.156594
-1.365	0.70375	0.175344
-1.5625	0.815	0.152506
-1.6	0.835	0.14
-1.5175	0.79	0.137
-1.5425	0.77625	0.158231
-1.48	0.80625	0.148875
-1.595	0.8425	0.133081
-1.4825	0.65125	0.153019
-1.5925	0.82125	0.148688
-1.51	0.80375	0.156075
-1.5875	0.83125	0.136538
-1.575	0.80625	0.146862
-1.56	0.8025	0.129469
-1.6975	0.90125	0.137219
-1.5275	0.8225	0.149344
-1.4925	0.73	0.134337
-1.52	0.81	0.143363
-1.55	0.8	0.149812
-1.53	0.81375	0.144369
-1.65	0.835	0.157419
-1.5525	0.83125	0.145144
-1.605	0.84375	0.147163
-1.6325	0.83125	0.146712
-1.6125	0.8525	0.146769
-1.4375	0.695	0.158137
-1.5675	0.77625	0.144681
-1.5875	0.8425	0.157194
-1.535	0.8075	0.145538
-1.5125	0.76375	0.137344
-1.5825	0.81875	0.1408
-1.5225	0.7175	0.156106
-1.69	0.9025	0.139288
-1.575	0.79375	0.131581
-1.5725	0.845	0.151731
-1.4925	0.77125	0.143969
-1.6025	0.855	0.131606
-1.63	0.86	0.143688
-1.66	0.86625	0.132506
-1.5825	0.8525	0.135969
-1.465	0.73625	0.144494
-1.565	0.805	0.150719
-1.595	0.8325	0.131638
-1.5375	0.8025	0.138637
-1.505	0.75	0.146337
-1.475	0.79625	0.140181
-1.555	0.79875	0.142987
-1.4975	0.69875	0.169237
-1.5325	0.76375	0.17875
-1.5575	0.80625	0.156775
-1.4725	0.7775	0.147456
-1.4275	0.59	0.155425
-1.505	0.71625	0.177181
-1.5725	0.795	0.153031
-1.5225	0.75375	0.151694
-1.6275	0.83625	0.164525
-1.5075	0.8	0.148631
-1.4725	0.7075	0.169937
-1.57	0.82875	0.152944
-1.6225	0.85375	0.138688
-1.49	0.62375	0.154688
-1.4775	0.74125	0.161275
-1.4325	0.62	0.156731
-1.6125	0.8625	0.157738
-1.6075	0.835	0.161363
-1.64	0.7825	0.150475
-1.595	0.84125	0.149594
-1.62	0.85375	0.1317
-1.5775	0.825	0.145731
-1.625	0.8575	0.138462
-1.5075	0.75375	0.130481
-1.4525	0.66125	0.14505
-1.59	0.82375	0.156738
-1.54	0.7725	0.145419
-1.5625	0.80125	0.145106
-1.58	0.78375	0.135813
-1.4925	0.7725	0.146906
-1.635	0.86375	0.136331
-1.5375	0.8025	0.139544
-1.65	0.8625	0.125213
-1.6225	0.8725	0.128175
-1.4975	0.76875	0.135969
-1.5475	0.8	0.138806
-1.5	0.77375	0.140556
-1.615	0.855	0.150769
-1.66	0.8475	0.133825
-1.45	0.745	0.160275
-1.6975	0.875	0.14275
-1.5425	0.795	0.133675
-1.5725	0.83375	0.143744
-1.495	0.7575	0.140031
-1.4875	0.7825	0.1574
-1.6025	0.79875	0.149519
-1.6875	0.895	0.142619
-1.5575	0.805	0.146237
-1.68	0.89375	0.136856
-1.6525	0.885	0.129231
-1.605	0.82	0.128263
-1.5725	0.81375	0.133506
-1.53	0.715	0.148994
-1.415	0.64875	0.161744
-1.4975	0.74375	0.145013
-1.5325	0.82	0.149919
-1.5875	0.845	0.139875
-1.4575	0.745	0.153463
-1.53	0.75375	0.152919
-1.5875	0.8275	0.157744
-1.545	0.76625	0.133819
-1.5875	0.8275	0.151844
-1.545	0.8125	0.134425
-1.5	0.7	0.150562
-1.68	0.8675	0.154262
-1.5875	0.85125	0.150369
-1.5575	0.825	0.142981
-1.57	0.82125	0.132019
-1.5125	0.74625	0.135325
-1.6475	0.8725	0.139144
-1.595	0.855	0.135175
-1.46	0.74875	0.143694
-1.44	0.70125	0.146037
-1.505	0.70375	0.176363
-1.5625	0.78625	0.1588
-1.615	0.84125	0.150262
-1.5025	0.80375	0.122775
-1.53	0.765	0.147719
-1.57	0.825	0.139162
-1.545	0.80125	0.141844
-1.5	0.595	0.175269
-1.6275	0.86625	0.163081
-1.635	0.835	0.139394
-1.665	0.8575	0.150313
-1.4875	0.765	0.173662
-1.545	0.78625	0.146656
-1.55	0.82	0.140119
-1.6175	0.8375	0.13505
-1.505	0.8	0.150987
-1.5025	0.77375	0.141669
-1.5375	0.8125	0.141406
-1.5125	0.775	0.145813
-1.5175	0.795	0.153413
-1.62	0.86375	0.137806
-1.61	0.86375	0.125388
-1.5425	0.79	0.141756
-1.5925	0.85125	0.150944
-1.565	0.83875	0.133213
-1.4175	0.60125	0.156475
-1.4625	0.7	0.172644
-1.55	0.795	0.160275
-1.535	0.795	0.137775
-1.535	0.8	0.139437
-1.505	0.77625	0.139731
-1.555	0.80625	0.148688
-1.6175	0.8575	0.130581
-1.655	0.89	0.141863
-1.5475	0.81125	0.147331
-1.5425	0.83375	0.136275
-1.4825	0.75375	0.159938
-1.6175	0.84625	0.1433
-1.52	0.77125	0.13845
-1.4475	0.77875	0.140962
-1.57	0.7975	0.137081
-1.5325	0.725	0.153938
-1.6275	0.85875	0.135394
-1.3925	0.6125	0.157131
-1.4975	0.7225	0.173275
-1.585	0.84375	0.160969
-1.58	0.7175	0.134281
-1.5725	0.845	0.168437
-1.5875	0.81875	0.140819
-1.675	0.88125	0.130087
-1.475	0.78	0.135944
-1.555	0.8175	0.147525
-1.48	0.745	0.137487
-1.52	0.76875	0.152456
-1.5825	0.79375	0.148287
-1.665	0.88125	0.149575
-1.485	0.76375	0.143075
-1.575	0.78375	0.16085
-1.5575	0.79875	0.139625
-1.5775	0.83375	0.1579
-1.5625	0.80625	0.125762
-1.5875	0.80875	0.159463
-1.57	0.83125	0.148938
-1.4875	0.75125	0.149925
-1.445	0.4675	0.171706
-1.425	0.7375	0.177038
-1.5175	0.76875	0.149181
-1.595	0.865	0.163419
-1.54	0.82625	0.137869
-1.52	0.7625	0.151331
-1.655	0.87	0.1494
-1.5925	0.85875	0.142581
-1.68	0.865	0.136569
-1.48	0.73	0.13835
-1.515	0.74	0.162738
-1.5475	0.715	0.176375
-1.6075	0.83375	0.150356
-1.475	0.66	0.144531
-1.5825	0.81875	0.148456
-1.535	0.79375	0.136412
-1.5875	0.83875	0.15225
-1.65	0.88	0.132819
-1.6175	0.8475	0.129588
-1.4	0.6475	0.165063
-1.52	0.745	0.16665
-1.5975	0.86375	0.148794
-1.545	0.82875	0.139688
-1.5025	0.79875	0.149187
-1.56	0.81375	0.136088
-1.5325	0.80625	0.1265
-1.56	0.81375	0.153888
-1.605	0.84625	0.151538
-1.49	0.73	0.150919
-1.56	0.85125	0.155956
-1.61	0.84625	0.138813
-1.5225	0.77125	0.148962
-1.62	0.85625	0.13945
-1.5875	0.82125	0.146
-1.6325	0.8725	0.135731
-1.495	0.8025	0.148625
-1.4975	0.6925	0.152475
-1.565	0.8275	0.142675
-1.585	0.7925	0.132762
-1.5325	0.82375	0.138894
-1.5725	0.82375	0.138925
-1.4125	0.6275	0.146419
-1.4625	0.6875	0.175825
-1.54	0.8075	0.154637
-1.645	0.86	0.139425
-1.5025	0.80875	0.148106
-1.5525	0.83125	0.128938
-1.55	0.81375	0.144738
-1.5525	0.79	0.158694
-1.655	0.87	0.155
-1.655	0.88125	0.139419
-1.6125	0.80375	0.12775
-1.4825	0.80875	0.146738
-1.6525	0.8825	0.145269
-1.5625	0.7675	0.133213
-1.5625	0.805	0.15165
-1.53	0.75625	0.144894
-1.4875	0.78125	0.13425
-1.5025	0.74125	0.147163
-1.5275	0.80375	0.167975
-1.6175	0.83875	0.137
-1.46	0.76375	0.135213
-1.54	0.78875	0.13585
-1.5025	0.765	0.138594
-1.5175	0.78625	0.137644
-1.5825	0.8225	0.157269
-1.565	0.7475	0.138225
-1.665	0.8775	0.142888
-1.5625	0.8075	0.161887
-1.54	0.80375	0.140519
-1.5375	0.82875	0.137987
-1.5225	0.8025	0.150756
-1.5775	0.81625	0.145231
-1.475	0.6275	0.170319
-1.5225	0.77875	0.156094
-1.5925	0.8325	0.144681
-1.5225	0.7875	0.139462
-1.5225	0.745	0.15365
-1.61	0.8625	0.140962
-1.5275	0.75125	0.143531
-1.455	0.7	0.156606
-1.605	0.835	0.14055
-1.62	0.8025	0.137937
-1.635	0.84875	0.149656
-1.5725	0.8075	0.139206
-1.4775	0.66625	0.142244
-1.6125	0.87125	0.166288
-1.54	0.76375	0.14105
-1.49	0.66125	0.172038
-1.485	0.76375	0.176725
-1.575	0.79125	0.147462
-1.4625	0.73	0.154094
-1.5325	0.7625	0.159688
-1.525	0.80875	0.140169
-1.585	0.84375	0.134587
-1.62	0.86	0.134594
-1.6225	0.84875	0.140494
-1.575	0.8475	0.136931
-1.64	0.87875	0.140144
-1.6375	0.86875	0.130625
-1.66	0.85875	0.140625
-1.7175	0.905	0.138694
-1.615	0.85125	0.145656
-1.5275	0.80375	0.12995
-1.4975	0.78625	0.135875
-1.4675	0.76	0.158669
-1.515	0.815	0.1461
-1.52	0.7675	0.143962
-1.52	0.715	0.167775
-1.6125	0.8525	0.1551
-1.51	0.6925	0.1594
-1.5525	0.81125	0.146181
-1.515	0.795	0.135969
-1.505	0.79375	0.153406
-1.6075	0.85375	0.1647
-1.615	0.85875	0.146325
-1.6025	0.85875	0.137225
-1.5875	0.83125	0.132125
-1.5225	0.71375	0.139237
-1.53	0.73875	0.138637
-1.6375	0.82625	0.139613
-1.495	0.79	0.145544
-1.5975	0.7925	0.15405
-1.515	0.78375	0.151331
-1.5325	0.80625	0.146137
-1.51	0.7275	0.144294
-1.54	0.77875	0.150106
-1.565	0.8	0.152656
-1.655	0.89375	0.138769
-1.4725	0.77	0.151719
-1.5875	0.84375	0.149494
-1.5375	0.69	0.149506
-1.5775	0.77125	0.156206
-1.4825	0.77625	0.146838
-1.6375	0.87	0.134569
-1.4525	0.66875	0.154919
-1.5575	0.82	0.135381
-1.5375	0.76125	0.144819
-1.5525	0.82	0.142544
-1.58	0.81375	0.132419
-1.475	0.72875	0.159013
-1.5575	0.8175	0.133369
-1.535	0.78375	0.136506
-1.5025	0.76625	0.141288
-1.6425	0.865	0.158294
-1.5875	0.86625	0.135619
-1.57	0.80625	0.14945
-1.5525	0.80625	0.1417
-1.6275	0.85625	0.139588
-1.5275	0.76	0.137394
-1.5875	0.84125	0.143244
-1.47	0.67875	0.151688
-1.5525	0.84125	0.167463
-1.39	0.67125	0.1576
-1.605	0.82375	0.145663
-1.585	0.82	0.145356
-1.53	0.79625	0.149569
-1.5475	0.7575	0.160444
-1.54	0.76625	0.158569
-1.4	0.63875	0.163525
-1.61	0.81	0.153069
-1.5	0.7775	0.135775
-1.54	0.78875	0.149819
-1.465	0.74375	0.149562
-1.5375	0.845	0.134881
-1.5075	0.75	0.148938
-1.6525	0.84875	0.151856
-1.5675	0.85125	0.144762
-1.6325	0.8725	0.140981
-1.505	0.81	0.137438
-1.6525	0.8675	0.159825
-1.52	0.8275	0.146325
-1.51	0.77375	0.170794
-1.695	0.89625	0.142388
-1.535	0.7325	0.133469
-1.5025	0.53625	0.165456
-1.3875	0.425	0.197881
-1.3675	0.33625	0.183019
-1.4275	0.47375	0.197063
-1.5	0.77875	0.167025
-1.4925	0.7525	0.152406
-1.4675	0.75	0.145063
-1.585	0.85125	0.154031
-1.46	0.76125	0.145725
-1.54	0.76875	0.143025
-1.575	0.77375	0.142063
-1.5675	0.8225	0.145669
-1.5375	0.77875	0.159969
-1.53	0.77875	0.153325
-1.5375	0.8075	0.156631
-1.4975	0.8075	0.141213
-1.635	0.7925	0.1543
-1.62	0.835	0.14725
-1.495	0.7575	0.13415
-1.5575	0.8225	0.137875
-1.5375	0.6975	0.149762
-1.4775	0.77125	0.163006
-1.5525	0.79625	0.148762
-1.53	0.8125	0.135519
-1.5375	0.78	0.142788
-1.575	0.82375	0.154056
-1.515	0.7575	0.128844
-1.565	0.79625	0.140194
-1.595	0.80125	0.13905
-1.495	0.7875	0.147581
-1.5	0.7175	0.144525
-1.505	0.765	0.163325
-1.5175	0.7825	0.148462
-1.6475	0.875	0.145313
-1.4875	0.765	0.132863
-1.6025	0.85375	0.142619
-1.5625	0.795	0.140019
-1.5025	0.7525	0.160837
-1.5575	0.785	0.1528
-1.34	0.545	0.184375
-1.5825	0.75375	0.169606
-1.56	0.785	0.146619
-1.525	0.74875	0.151381
-1.57	0.82125	0.161263
-1.58	0.75125	0.136175
-1.565	0.8	0.143019
-1.47	0.66	0.180038
-1.68	0.88625	0.142819
-1.5525	0.81625	0.144738
-1.49	0.705	0.146394
-1.5975	0.855	0.138163
-1.5875	0.76875	0.151994
-1.62	0.7675	0.154031
-1.42	0.55375	0.162206
-1.4975	0.77625	0.1836
-1.5425	0.7875	0.157369
-1.5	0.77625	0.149856
-1.6275	0.86375	0.143325
-1.4325	0.6725	0.133356
-1.555	0.82875	0.152094
-1.4175	0.50625	0.17775
-1.4575	0.5975	0.170981
-1.44	0.67375	0.177819
-1.5625	0.81	0.166269
-1.64	0.86125	0.140294
-1.595	0.8575	0.131131
-1.5575	0.82375	0.133869
-1.59	0.835	0.155644
-1.475	0.73875	0.145444
-1.565	0.8475	0.148581
-1.5375	0.78	0.141275
-1.5925	0.84625	0.146169
-1.5575	0.80375	0.136438
-1.51	0.7675	0.144906
-1.54	0.82	0.163137
-1.5625	0.7475	0.135512
-1.61	0.855	0.147762
-1.6275	0.87	0.128263
-1.5725	0.84125	0.151844
-1.5925	0.76625	0.148263
-1.4125	0.56625	0.1628
-1.4875	0.7075	0.157856
-1.505	0.75875	0.158119
-1.6275	0.8475	0.159619
-1.555	0.79625	0.136694
-1.6025	0.79875	0.150025
-1.5525	0.815	0.133631
-1.5125	0.7025	0.156925
-1.505	0.75125	0.169606
-1.6225	0.855	0.146519
-1.6625	0.87375	0.128631
-1.5775	0.84	0.132794
-1.6325	0.83	0.13765
-1.605	0.87625	0.149419
-1.6075	0.855	0.139969
-1.5175	0.8	0.131512
-1.5925	0.8225	0.16105
-1.4125	0.64125	0.157719
-1.5375	0.8175	0.146281
-1.51	0.79125	0.138394
-1.6725	0.87875	0.1401
-1.515	0.72375	0.14875
-1.5875	0.7775	0.160431
-1.5675	0.8275	0.140113
-1.465	0.76625	0.126781
-1.5	0.78	0.139544
-1.535	0.82625	0.130756
-1.6275	0.8675	0.135494
-1.5825	0.78375	0.145806
-1.5925	0.83	0.147406
-1.465	0.74125	0.139469
-1.6175	0.84625	0.145325
-1.525	0.77	0.135031
-1.675	0.8925	0.13915
-1.5175	0.735	0.15085
-1.6225	0.81625	0.154294
-1.615	0.8675	0.142181
-1.4875	0.78625	0.137981
-1.69	0.88875	0.148488
-1.5125	0.77375	0.133663
-1.5675	0.78625	0.156675
-1.495	0.73625	0.159838
-1.63	0.86125	0.1442
-1.61	0.8575	0.141194
-1.585	0.8025	0.153125
-1.625	0.87375	0.141181
-1.5825	0.85	0.133681
-1.5825	0.8475	0.142625
-1.57	0.79125	0.133869
-1.61	0.82625	0.147275
-1.52	0.77875	0.150638
-1.59	0.815	0.142781
-1.5475	0.81	0.158313
-1.5775	0.83	0.156775
-1.5625	0.80875	0.152606
-1.465	0.7475	0.134294
-1.54	0.775	0.148925
-1.5075	0.81375	0.137319
-1.54	0.8175	0.135181
-1.5225	0.7975	0.146075
-1.675	0.88125	0.141769
-1.5025	0.76875	0.139512
-1.615	0.815	0.138794
-1.5725	0.82875	0.150781
-1.5625	0.8	0.145444
-1.4175	0.70875	0.145281
-1.5925	0.81	0.155719
-1.5925	0.84375	0.140269
-1.665	0.85875	0.131263
-1.6225	0.84375	0.1369
-1.58	0.82125	0.145063
-1.5575	0.78375	0.144563
-1.5125	0.7375	0.148719
-1.5575	0.81125	0.151469
-1.5525	0.82625	0.1489
-1.52	0.76875	0.149512
-1.595	0.82875	0.153012
-1.63	0.87375	0.136975
-1.56	0.8475	0.141644
-1.42	0.71625	0.154869
-1.565	0.825	0.150594
-1.6225	0.855	0.147762
-1.5175	0.79625	0.138219
-1.5325	0.82625	0.144638
-1.5825	0.80125	0.136762
-1.5825	0.83625	0.140725
-1.6	0.81375	0.1443
-1.555	0.815	0.141694
-1.5725	0.8075	0.1438
-1.625	0.8425	0.135738
-1.5075	0.7375	0.138575
-1.6625	0.8475	0.155275
-1.5125	0.8	0.143712
-1.5575	0.82875	0.144494
-1.5725	0.83375	0.1418
-1.65	0.86375	0.150838
-1.5275	0.76875	0.145687
-1.4475	0.7375	0.149506
-1.5	0.79	0.154262
-1.605	0.74875	0.146469
-1.605	0.8275	0.154381
-1.525	0.7875	0.138
-1.6225	0.77	0.142975
-1.4825	0.80875	0.145269
-1.41	0.6825	0.164956
-1.5325	0.7375	0.178712
-1.5075	0.77875	0.140531
-1.485	0.7725	0.147856
-1.495	0.80625	0.146381
-1.5425	0.81	0.142519
-1.6025	0.84625	0.129269
-1.6025	0.81625	0.1492
-1.54	0.76875	0.149462
-1.5625	0.80125	0.153725
-1.6225	0.87375	0.139137
-1.555	0.835	0.142631
-1.6525	0.87	0.138725
-1.4775	0.755	0.148762
-1.525	0.815	0.138387
-1.4725	0.63125	0.158994
-1.4675	0.60875	0.17605
-1.58	0.76875	0.159463
-1.5175	0.76125	0.145925
-1.68	0.88375	0.158313
-1.675	0.85875	0.1284
-1.6525	0.88125	0.127525
-1.5275	0.7975	0.133794
-1.605	0.84125	0.141906
-1.535	0.80125	0.14695
-1.5925	0.78875	0.138712
-1.435	0.695	0.150906
-1.6375	0.87125	0.160044
-1.57	0.84	0.128544
-1.4975	0.7675	0.152975
-1.575	0.83	0.145325
-1.5225	0.75125	0.167044
-1.605	0.86	0.144081
-1.665	0.875	0.142212
-1.6875	0.86375	0.154431
-1.6	0.85125	0.142075
-1.6025	0.86	0.139844
-1.61	0.87	0.139425
-1.5475	0.81125	0.140069
-1.54	0.7475	0.147506
-1.5825	0.785	0.145987
-1.675	0.89375	0.148956
-1.6025	0.79875	0.152737
-1.4825	0.73125	0.142912
-1.475	0.76125	0.141637
-1.5975	0.80375	0.14655
-1.5125	0.70875	0.162325
-1.5275	0.75875	0.1396
-1.5475	0.67125	0.175113
-1.61	0.7575	0.158594
-1.62	0.83625	0.145456
-1.4825	0.8125	0.131219
-1.5625	0.835	0.139962
-1.58	0.79125	0.146881
-1.565	0.83625	0.133725
-1.5175	0.77	0.142044
-1.505	0.66	0.158037
-1.4125	0.645	0.167437
-1.5925	0.84375	0.138569
-1.5375	0.7975	0.147194
-1.44	0.73125	0.136506
-1.6175	0.86625	0.1465
-1.5025	0.80375	0.139738
-1.5175	0.8125	0.145269
-1.635	0.82375	0.139981
-1.5925	0.805	0.145931
-1.59	0.85625	0.150794
-1.58	0.7975	0.136569
-1.4525	0.6775	0.151475
-1.61	0.865	0.160837
-1.6575	0.885	0.133887
-1.5875	0.815	0.145225
-1.4875	0.63625	0.162856
-1.4525	0.675	0.174081
-1.5525	0.76625	0.156056
-1.485	0.75875	0.1351
-1.4975	0.7525	0.144294
-1.5375	0.8225	0.154725
-1.475	0.7625	0.148425
-1.6525	0.85875	0.155069
-1.4875	0.78625	0.138063
-1.39	0.63375	0.149375
-1.5025	0.7575	0.170406
-1.7425	0.91375	0.141656
-1.5775	0.80625	0.140725
-1.6125	0.83375	0.153663
-1.61	0.85	0.137056
-1.5075	0.8025	0.144225
-1.5475	0.845	0.142175
-1.54	0.75125	0.166806
-1.6475	0.86375	0.146813
-1.5525	0.8125	0.126169
-1.6025	0.845	0.142888
-1.61	0.845	0.130288
-1.57	0.815	0.127738
-1.59	0.84375	0.155406
-1.59	0.85625	0.144437
-1.5975	0.85	0.142906
-1.475	0.74	0.140538
-1.46	0.7525	0.164887
-1.5275	0.785	0.156862
-1.545	0.78875	0.149619
-1.66	0.8475	0.140969
-1.5125	0.78375	0.148569
-1.4675	0.79	0.154244
-1.5275	0.80625	0.147656
-1.6025	0.805	0.147781
-1.6525	0.8825	0.159662
-1.4525	0.7325	0.143388
-1.5625	0.835	0.136438
-1.39	0.71125	0.141344
-1.42	0.69125	0.13935
-1.54	0.79125	0.144125
-1.55	0.82	0.150394
-1.58	0.77875	0.138644
-1.49	0.78875	0.157512
-1.6125	0.82125	0.142662
-1.58	0.8325	0.146694
-1.385	0.68875	0.148606
-1.6275	0.88625	0.145237
-1.4975	0.78375	0.14965
-1.455	0.79375	0.13325
-1.62	0.8375	0.137019
-1.48	0.7275	0.154037
-1.635	0.8475	0.155888
-1.645	0.875	0.137025
-1.6475	0.875	0.139475
-1.635	0.8575	0.136225
-1.605	0.85875	0.137931
-1.5375	0.755	0.143206
-1.48	0.7325	0.1541
-1.5075	0.795	0.1569
-1.645	0.8525	0.139012
-1.5425	0.77875	0.139306
-1.5725	0.8375	0.135919
-1.6025	0.8125	0.12965
-1.585	0.8375	0.145838
-1.6075	0.845	0.146187
-1.585	0.83875	0.136719
-1.6325	0.875	0.134581
-1.56	0.8075	0.138187
-1.6675	0.87875	0.140669
-1.6025	0.84875	0.13175
-1.6325	0.86875	0.138925
-1.4775	0.75	0.140506
-1.515	0.75625	0.160294
-1.4425	0.73	0.163631
-1.585	0.8325	0.139812
-1.4875	0.73875	0.147244
-1.4975	0.79375	0.1535
-1.5175	0.7925	0.150406
-1.4575	0.755	0.143775
-1.53	0.79	0.142037
-1.5575	0.82	0.135038
-1.5525	0.77875	0.148444
-1.5225	0.8075	0.151556
-1.4875	0.77625	0.139594
-1.5275	0.76125	0.146738
-1.465	0.71875	0.1667
-1.615	0.85875	0.146975
-1.575	0.75875	0.140113
-1.5475	0.785	0.144431
-1.57	0.7025	0.149588
-1.6075	0.85625	0.156019
-1.5075	0.77875	0.148625
-1.4925	0.77	0.149144
-1.56	0.835	0.134813
-1.49	0.80375	0.131169
-1.5275	0.7925	0.142256
-1.57	0.8175	0.1499
-1.585	0.86125	0.139494
-1.5525	0.81125	0.15185
-1.585	0.79375	0.139187
-1.555	0.80875	0.142875
-1.4525	0.6275	0.152806
-1.585	0.8375	0.163988
-1.515	0.7575	0.169163
-1.6175	0.825	0.145325
-1.555	0.775	0.143263
-1.63	0.86625	0.156794
-1.485	0.73625	0.140687
-1.55	0.80875	0.145675
-1.5525	0.81625	0.143125
-1.5175	0.7325	0.151256
-1.61	0.82875	0.141706
-1.6025	0.8125	0.140094
-1.455	0.54875	0.173906
-1.32	0.17875	0.2007
-1.3925	0.415	0.216019
-1.4675	0.69875	0.186756
-1.6475	0.84125	0.148275
-1.5075	0.7675	0.134294
-1.5175	0.785	0.150962
-1.5375	0.78	0.143
-1.435	0.60125	0.166344
-1.59	0.8425	0.154456
-1.555	0.81	0.15
-1.525	0.77875	0.138294
-1.635	0.8275	0.159769
-1.6025	0.86375	0.139756
-1.6375	0.87125	0.141475
-1.4825	0.72125	0.129625
-1.5575	0.8275	0.152744
-1.5325	0.7825	0.140187
-1.5275	0.79625	0.142831
-1.5775	0.81	0.144131
-1.635	0.87375	0.150131
-1.4775	0.735	0.153181
-1.55	0.83875	0.139206
-1.625	0.8425	0.145206
-1.48	0.80125	0.135219
-1.55	0.81375	0.144375
-1.6075	0.84125	0.134388
-1.515	0.7925	0.154969
-1.5675	0.8075	0.14645
-1.5875	0.83875	0.137569
-1.5775	0.8275	0.137944
-1.545	0.73	0.156725
-1.5375	0.77125	0.147619
-1.4975	0.785	0.149856
-1.6425	0.87	0.130488
-1.545	0.785	0.166687
-1.5225	0.77375	0.153344
-1.525	0.74125	0.160263
-1.5075	0.78875	0.158438
-1.485	0.75875	0.145413
-1.565	0.8	0.156594
-1.4625	0.70875	0.147281
-1.65	0.84	0.143694
-1.545	0.77	0.15865
-1.52	0.79875	0.154144
-1.5175	0.78875	0.137637
-1.5875	0.845	0.143431
-1.61	0.82875	0.146869
-1.4625	0.6725	0.168419
-1.5825	0.8275	0.1389
-1.5175	0.78625	0.162906
-1.545	0.78125	0.135725
-1.6275	0.85875	0.152925
-1.59	0.8075	0.148169
-1.5225	0.815	0.145275
-1.5825	0.85125	0.143681
-1.57	0.82875	0.134738
-1.61	0.8525	0.143331
-1.615	0.845	0.133575
-1.4575	0.55875	0.154506
-1.5	0.6	0.171019
-1.435	0.5075	0.17025
-1.57	0.76125	0.180394
-1.605	0.7825	0.136044
-1.61	0.82875	0.172181
-1.6	0.83625	0.134375
-1.6275	0.8725	0.137844
-1.5925	0.765	0.141538
-1.5325	0.80125	0.148794
-1.4775	0.66375	0.155825
-1.5975	0.83875	0.167588
-1.475	0.71625	0.141125
-1.455	0.7525	0.147281
-1.635	0.86875	0.140306
-1.5575	0.81375	0.1439
-1.59	0.84	0.144856
-1.515	0.77	0.138688
-1.5625	0.84375	0.132056
-1.5825	0.8225	0.152031
-1.605	0.855	0.134825
-1.6625	0.87875	0.138719
-1.5375	0.745	0.137219
-1.4175	0.51125	0.174719
-1.5275	0.76	0.161906
-1.615	0.84	0.158575
-1.55	0.67	0.145275
-1.395	0.59875	0.165081
-1.6425	0.86125	0.177737
-1.5625	0.8025	0.135819
-1.575	0.79875	0.165431
-1.6675	0.85	0.140081
-1.69	0.88375	0.128981
-1.465	0.70125	0.14095
-1.6325	0.8725	0.138331
-1.4275	0.73125	0.141769
-1.54	0.8325	0.146494
-1.5775	0.81875	0.148144
-1.62	0.83125	0.12975
-1.5825	0.8325	0.141219
-1.555	0.825	0.132575
-1.555	0.74375	0.148594
-1.6375	0.8725	0.137044
-1.595	0.84875	0.136406
-1.545	0.79375	0.131625
-1.555	0.8175	0.139706
-1.6025	0.845	0.135275
-1.5975	0.8375	0.136037
-1.4725	0.6825	0.160575
-1.5775	0.7975	0.1628
-1.48	0.755	0.146738
-1.4325	0.64375	0.146494
-1.585	0.82625	0.1507
-1.5475	0.83125	0.133038
-1.515	0.78	0.138056
-1.605	0.82375	0.132094
-1.5125	0.80375	0.157938
-1.63	0.8525	0.149206
-1.59	0.85125	0.140844
