# nm = 1024 nc = 100 len = 40 extf = 0 beta = 0.444
#energy 	magnetization 	acceptance
-1.5425	0.7575	0.154738
-1.59	0.83375	0.168844
-1.4725	0.79875	0.159488
-1.5025	0.75875	0.155963
-1.4875	0.72375	0.164363
-1.4675	0.71	0.170031
-1.385	0.61375	0.167319
-1.405	0.6775	0.210356
-1.495	0.7475	0.166825
-1.6	0.845	0.166762
-1.435	0.725	0.151325
-1.4675	0.7725	0.173337
-1.4375	0.61375	0.165769
-1.495	0.81	0.175494
-1.38	0.62375	0.166256
-1.54	0.79875	0.180175
-1.39	0.58375	0.1864
-1.4025	0.66	0.188644
-1.6	0.82875	0.163419
-1.4675	0.73	0.160756
-1.48	0.69875	0.167044
-1.2675	0.52625	0.200175
-1.33	0.6175	0.204931
-1.4025	0.61125	0.194031
-1.4625	0.5275	0.202756
-1.385	0.67125	0.198181
-1.63	0.85	0.171794
-1.5225	0.76375	0.162494
-1.4275	0.6675	0.184806
-1.3825	0.6925	0.17635
-1.455	0.6775	0.163812
-1.475	0.8	0.18525
-1.5075	0.7925	0.163975
-1.54	0.78625	0.155356
-1.3625	0.575	0.195706
-1.42	0.5525	0.207063
-1.4825	0.50125	0.222381
-1.4375	0.53	0.201819
-1.47	0.65375	0.193531
-1.41	0.63625	0.2136
-1.4725	0.76375	0.188313
-1.305	0.64125	0.188163
-1.3725	0.73875	0.171137
-1.5175	0.76125	0.18045
-1.415	0.69875	0.171137
-1.5625	0.81875	0.177387
-1.545	0.825	0.168381
-1.3825	0.67	0.16695
-1.47	0.75875	0.165144
-1.5	0.7325	0.180031
-1.5325	0.81625	0.180356
-1.5275	0.72625	0.168513
-1.56	0.82625	0.1664
-1.4775	0.7825	0.156094
-1.535	0.79875	0.155144
-1.5375	0.82	0.174494
-1.3375	0.61625	0.166656
-1.49	0.71625	0.195162
-1.465	0.6075	0.199344
-1.4	0.59	0.187188
-1.5425	0.79	0.18555
-1.475	0.72	0.160675
-1.5875	0.82	0.181337
-1.4025	0.72375	0.156969
-1.5875	0.835	0.181706
-1.5575	0.83375	0.158206
-1.425	0.73375	0.178413
-1.425	0.6475	0.169331
-1.395	0.465	0.1971
-1.45	0.58125	0.210356
-1.46	0.75625	0.202875
-1.415	0.6825	0.187956
-1.465	0.73625	0.193294
-1.5475	0.82	0.173431
-1.4825	0.735	0.163225
-1.4175	0.725	0.1682
-1.3975	0.63625	0.178556
-1.56	0.82	0.168506
-1.4475	0.745	0.1669
-1.555	0.81875	0.171319
-1.4375	0.7425	0.173069
-1.4525	0.75875	0.170581
-1.5075	0.78375	0.163225
-1.4025	0.71625	0.171363
-1.47	0.7475	0.173994
-1.41	0.5775	0.1852
-1.5375	0.79625	0.186619
-1.4175	0.70875	0.173525
-1.52	0.61375	0.179875
-1.45	0.74125	0.195837
-1.515	0.72125	0.17565
-1.5025	0.81	0.186969
-1.5525	0.79625	0.177919
-1.6175	0.86625	0.159062
-1.515	0.65125	0.159688
-1.38	0.62875	0.186925
-1.54	0.765	0.182844
-1.4825	0.7525	0.171038
-1.5275	0.81375	0.177156
-1.425	0.705	0.160794
-1.43	0.72375	0.177819
-1.485	0.73875	0.1719
-1.4775	0.65625	0.18495
-1.505	0.755	0.170769
-1.5075	0.78	0.171613
-1.5675	0.80875	0.178106
-1.485	0.8	0.185269
-1.545	0.78875	0.170969
-1.5325	0.78	0.188956
-1.415	0.735	0.165263
-1.5475	0.825	0.164812
-1.5625	0.63375	0.180381
-1.515	0.81375	0.172575
-1.63	0.8775	0.162344
-1.45	0.75375	0.162056
-1.32	0.555	0.196094
-1.51	0.79375	0.172119
-1.5125	0.83125	0.172512
-1.5625	0.82125	0.153875
-1.52	0.83	0.175856
-1.5	0.79375	0.165619
-1.425	0.73125	0.16605
-1.555	0.83875	0.167475
-1.52	0.76875	0.162925
-1.4975	0.76125	0.172313
-1.505	0.78125	0.172063
-1.4425	0.61375	0.188713
-1.4575	0.59875	0.1989
-1.37	0.61125	0.191988
-1.4025	0.76625	0.180437
-1.4575	0.73625	0.16425
-1.4525	0.735	0.169431
-1.4775	0.735	0.175763
-1.3825	0.6875	0.177663
-1.3325	0.62875	0.189019
-1.3775	0.68125	0.175862
-1.4	0.64625	0.1873
-1.415	0.51875	0.191875
-1.46	0.61	0.183156
-1.4075	0.72125	0.169719
-1.555	0.83	0.172844
-1.53	0.77375	0.170044
-1.4275	0.75375	0.160425
-1.4875	0.71375	0.167675
-1.4075	0.6625	0.174506
-1.425	0.64625	0.182006
-1.37	0.63125	0.184275
-1.46	0.7275	0.189806
-1.5625	0.75125	0.199719
-1.44	0.71875	0.171588
-1.5225	0.82	0.176469
-1.49	0.77375	0.165131
-1.465	0.72	0.173006
-1.3425	0.59375	0.198981
-1.565	0.80375	0.172313
-1.4875	0.7275	0.169419
-1.4425	0.77875	0.177006
-1.4825	0.7825	0.169056
-1.4775	0.745	0.157063
-1.475	0.75625	0.186956
-1.425	0.68625	0.178463
-1.5125	0.79	0.165556
-1.4325	0.61125	0.184406
-1.44	0.49625	0.1918
-1.5	0.775	0.190494
-1.49	0.64625	0.177206
-1.3375	0.665	0.175569
-1.485	0.77	0.191663
-1.3725	0.68375	0.195006
-1.395	0.6125	0.208644
-1.415	0.68125	0.205619
-1.4425	0.73625	0.171788
-1.4475	0.555	0.208706
-1.535	0.81	0.179587
-1.5125	0.75375	0.167531
-1.5575	0.70875	0.177312
-1.545	0.73375	0.186425
-1.4425	0.7475	0.200106
-1.545	0.8175	0.15465
-1.495	0.80875	0.156456
-1.5725	0.8225	0.161219
-1.5325	0.80625	0.157069
-1.3775	0.59375	0.184937
-1.4525	0.7	0.184256
-1.525	0.70125	0.180756
-1.4775	0.7375	0.169869
-1.485	0.7125	0.187275
-1.5025	0.795	0.172875
-1.385	0.5525	0.179212
-1.5625	0.8225	0.190688
-1.4325	0.67625	0.163994
-1.5	0.71	0.178969
-1.4625	0.77	0.168788
-1.42	0.61875	0.179906
-1.47	0.7425	0.177194
-1.5225	0.81	0.174438
-1.3575	0.6225	0.1787
-1.5075	0.79375	0.172069
-1.5625	0.815	0.167644
-1.41	0.67	0.165725
-1.65	0.885	0.176737
-1.515	0.73625	0.176131
-1.4875	0.7425	0.164594
-1.4725	0.78375	0.181406
-1.65	0.81	0.173356
-1.49	0.7625	0.156512
-1.49	0.76625	0.183431
-1.42	0.72	0.173056
-1.5125	0.7475	0.177563
-1.5825	0.77125	0.157406
-1.4375	0.68125	0.19285
-1.5775	0.84	0.177619
-1.545	0.8175	0.159612
-1.395	0.6975	0.159313
-1.57	0.715	0.17635
-1.4075	0.61125	0.181106
-1.46	0.58	0.188756
-1.365	0.45125	0.201044
-1.46	0.69625	0.192712
-1.35	0.4975	0.201669
-1.5	0.66125	0.196106
-1.3925	0.62125	0.200237
-1.4025	0.6375	0.196569
-1.4475	0.705	0.195175
-1.5275	0.825	0.1793
-1.475	0.77875	0.167656
-1.3925	0.72875	0.162938
-1.485	0.76875	0.171075
-1.595	0.82125	0.1656
-1.47	0.77125	0.151263
-1.3025	0.58	0.193944
-1.46	0.68625	0.203631
-1.605	0.8325	0.185544
-1.505	0.79125	0.169169
-1.385	0.62125	0.171725
-1.65	0.87	0.172456
-1.4525	0.71	0.166225
-1.4925	0.7125	0.189537
-1.4825	0.745	0.174737
-1.54	0.75125	0.155969
-1.48	0.66625	0.1899
-1.445	0.7175	0.179694
-1.54	0.79875	0.190544
-1.4775	0.65375	0.18215
-1.4925	0.72	0.177956
-1.49	0.73	0.1677
-1.4475	0.68125	0.158844
-1.4475	0.66125	0.1982
-1.615	0.8375	0.182669
-1.5475	0.8175	0.170763
-1.415	0.74125	0.173731
-1.5575	0.8225	0.184106
-1.495	0.7725	0.182063
-1.595	0.805	0.175675
-1.4475	0.63625	0.168406
-1.44	0.6825	0.188044
-1.325	0.64625	0.194619
-1.485	0.725	0.188369
-1.435	0.7	0.177462
-1.49	0.77125	0.166556
-1.39	0.6225	0.184656
-1.47	0.665	0.193538
-1.475	0.72625	0.177894
-1.5375	0.825	0.174944
-1.5425	0.80875	0.145181
-1.5975	0.78125	0.161537
-1.45	0.65875	0.17615
-1.4675	0.6625	0.193856
-1.4075	0.66375	0.190269
-1.49	0.68375	0.174
-1.6025	0.80875	0.175012
-1.4875	0.79	0.167881
-1.3925	0.59125	0.179706
-1.54	0.79125	0.201588
-1.51	0.79875	0.160562
-1.535	0.795	0.171044
-1.4625	0.59875	0.180656
-1.585	0.85625	0.18055
-1.53	0.77	0.174356
-1.4975	0.8025	0.168525
-1.5825	0.86	0.15065
-1.5175	0.7325	0.181212
-1.445	0.7325	0.181663
-1.4825	0.7425	0.164913
-1.33	0.49375	0.211081
-1.4975	0.6425	0.212731
-1.3275	0.59	0.193988
-1.505	0.80125	0.166856
-1.495	0.74	0.168894
-1.43	0.53	0.18305
-1.5025	0.715	0.178813
-1.52	0.81	0.173738
-1.5175	0.8075	0.1727
-1.4075	0.69	0.166112
-1.49	0.58125	0.197381
-1.5425	0.80375	0.176062
-1.48	0.69375	0.16295
-1.5775	0.83875	0.170763
-1.3625	0.62875	0.1811
-1.5125	0.77625	0.174675
-1.52	0.80375	0.169838
-1.54	0.83	0.157881
-1.49	0.72	0.176062
-1.495	0.7525	0.172313
-1.3825	0.60625	0.170506
-1.305	0.4225	0.204056
-1.4275	0.71625	0.188619
-1.51	0.7525	0.189756
-1.4625	0.71	0.182875
-1.4875	0.79125	0.170694
-1.525	0.78125	0.166612
-1.5075	0.71125	0.169063
-1.52	0.75125	0.176275
-1.495	0.76875	0.1918
-1.355	0.6725	0.171969
-1.4375	0.735	0.19125
-1.525	0.815	0.167413
-1.57	0.84125	0.155494
-1.525	0.79125	0.15305
-1.4275	0.72	0.168581
-1.5	0.74625	0.175669
-1.4125	0.68625	0.1669
-1.43	0.64125	0.207412
-1.315	0.59375	0.189012
-1.4425	0.6975	0.193419
-1.585	0.8275	0.169962
-1.5625	0.85625	0.173481
-1.4875	0.77	0.158906
-1.5625	0.81375	0.171481
-1.5725	0.8325	0.166106
-1.465	0.785	0.159
-1.47	0.74375	0.176231
-1.585	0.82875	0.173137
-1.425	0.67875	0.1737
-1.49	0.79875	0.17775
-1.585	0.85875	0.16505
-1.56	0.805	0.156206
-1.44	0.745	0.1701
-1.615	0.8575	0.169887
-1.4125	0.70375	0.162231
-1.3475	0.56	0.187106
-1.5925	0.83375	0.171544
-1.3675	0.68	0.163994
-1.4475	0.765	0.179938
-1.395	0.66875	0.179669
-1.505	0.7975	0.179319
-1.505	0.76125	0.179431
-1.48	0.7	0.176056
-1.365	0.6425	0.193275
-1.6075	0.81	0.171212
-1.47	0.7475	0.152375
-1.4925	0.71625	0.169194
-1.345	0.59875	0.173075
-1.5	0.75125	0.196513
-1.42	0.76	0.168881
-1.405	0.64	0.16875
-1.445	0.65125	0.203606
-1.3375	0.62625	0.184513
-1.3825	0.69125	0.18735
-1.4325	0.73375	0.177225
-1.4225	0.68125	0.171013
-1.49	0.69625	0.17625
-1.59	0.8525	0.180919
-1.3875	0.6475	0.166225
-1.3825	0.58125	0.201056
-1.4675	0.77625	0.184812
-1.49	0.77	0.168494
-1.4475	0.64	0.159463
-1.4775	0.75	0.18245
-1.4875	0.74625	0.159556
-1.62	0.80875	0.191025
-1.4975	0.76875	0.165313
-1.455	0.73125	0.181938
-1.5025	0.7875	0.164981
-1.495	0.76375	0.166181
-1.515	0.76375	0.1779
-1.5125	0.75125	0.165138
-1.4775	0.75375	0.1699
-1.5175	0.79625	0.179563
-1.39	0.60625	0.17645
-1.585	0.815	0.184281
-1.5125	0.7475	0.174862
-1.4425	0.7325	0.175963
-1.515	0.7925	0.163125
-1.4425	0.75875	0.173469
-1.29	0.34125	0.201563
-1.31	0.40125	0.218438
-1.3425	0.3175	0.205806
-1.3225	-0.0625	0.2291
-1.2725	0.005	0.225413
-1.39	0.13	0.2346
-1.32	0.35125	0.228431
-1.325	0.225	0.239569
-1.49	0.5375	0.2148
-1.2225	0.40625	0.224544
-1.4225	0.68125	0.200787
-1.5475	0.7475	0.190644
-1.4975	0.76125	0.166494
-1.3575	0.6325	0.191244
-1.4925	0.70375	0.180744
-1.5075	0.7825	0.186781
-1.4875	0.7975	0.181237
-1.62	0.8375	0.177175
-1.44	0.785	0.158463
-1.465	0.7675	0.173025
-1.3475	0.60125	0.197981
-1.4775	0.73375	0.18565
-1.4925	0.75	0.180006
-1.47	0.76375	0.163394
-1.5325	0.76625	0.184525
-1.53	0.755	0.176381
-1.4475	0.69625	0.179881
-1.3825	0.585	0.183406
-1.4025	0.3825	0.21025
-1.4775	0.69375	0.209894
-1.475	0.73	0.194744
-1.5525	0.79625	0.180894
-1.515	0.805	0.156781
-1.4525	0.68375	0.186544
-1.435	0.74125	0.168387
-1.3925	0.70375	0.180562
-1.54	0.82375	0.171013
-1.545	0.8	0.174506
-1.52	0.79	0.1824
-1.325	0.4725	0.202
-1.4675	0.62625	0.192819
-1.37	0.66625	0.19245
-1.3625	0.69125	0.184188
-1.3675	0.52	0.182131
-1.3475	0.62875	0.215981
-1.305	0.40375	0.206975
-1.4975	0.6375	0.196444
-1.5725	0.83875	0.170244
-1.475	0.68125	0.171675
-1.43	0.62	0.196631
-1.51	0.7525	0.194363
-1.4025	0.6125	0.196062
-1.5625	0.79	0.1688
-1.46	0.755	0.174537
-1.3425	0.60625	0.178306
-1.5475	0.8025	0.191681
-1.6425	0.83625	0.158619
-1.4325	0.61625	0.186788
-1.345	0.4975	0.198894
-1.3525	0.44	0.193038
-1.395	0.63125	0.190919
-1.56	0.8375	0.176031
-1.5325	0.76125	0.172069
-1.4175	0.68	0.179206
-1.54	0.77125	0.188219
-1.4575	0.755	0.178919
-1.4325	0.62	0.177063
-1.425	0.56375	0.208744
-1.4375	0.48125	0.207575
-1.4025	0.5475	0.206356
-1.525	0.8175	0.193212
-1.4525	0.7475	0.161163
-1.4425	0.73625	0.175431
-1.475	0.5925	0.183194
-1.535	0.79625	0.185069
-1.5425	0.80625	0.187225
-1.4875	0.81375	0.16175
-1.5375	0.8	0.167594
-1.5175	0.77	0.182737
-1.35	0.58375	0.187444
-1.5525	0.81125	0.19275
-1.45	0.59375	0.16535
-1.3625	0.63625	0.19195
-1.5575	0.78	0.177519
-1.49	0.7525	0.162712
-1.475	0.78625	0.162494
-1.435	0.705	0.171794
-1.38	0.59125	0.173381
-1.3675	0.57375	0.188663
-1.32	0.44125	0.199225
-1.445	0.66375	0.190875
-1.475	0.735	0.171444
-1.3925	0.6825	0.171275
-1.3425	0.64125	0.190106
-1.5025	0.78	0.163319
-1.51	0.755	0.175662
-1.42	0.69625	0.186244
-1.4425	0.7425	0.188356
-1.4975	0.585	0.198988
-1.445	0.715	0.187225
-1.545	0.8275	0.161187
-1.45	0.7025	0.179225
-1.5525	0.81375	0.185056
-1.5	0.685	0.174281
-1.4625	0.5875	0.190337
-1.4725	0.7625	0.187537
-1.4275	0.72	0.175012
-1.495	0.765	0.160525
-1.3925	0.74875	0.168381
-1.455	0.72625	0.167375
-1.49	0.7125	0.183231
-1.51	0.775	0.188925
-1.39	0.63	0.1611
-1.475	0.7925	0.184688
-1.5275	0.76875	0.165819
-1.495	0.565	0.208094
-1.46	0.685	0.19225
-1.4625	0.67375	0.175981
-1.505	0.76125	0.17
-1.48	0.76	0.181844
-1.48	0.76625	0.182531
-1.52	0.7825	0.172081
-1.525	0.70625	0.170594
-1.5175	0.7775	0.185894
-1.485	0.78375	0.182994
-1.56	0.8	0.180381
-1.5225	0.78625	0.171094
-1.345	0.57875	0.188038
-1.29	0.26875	0.220625
-1.3275	0.09125	0.20865
-1.2775	0.2625	0.226794
-1.3425	0.47	0.230175
-1.435	0.61125	0.195681
-1.535	0.82125	0.190463
-1.4825	0.7375	0.177619
-1.5925	0.86125	0.153119
-1.4275	0.6875	0.193881
-1.475	0.7725	0.1718
-1.565	0.83125	0.173156
-1.44	0.74375	0.170938
-1.3725	0.5725	0.185769
-1.545	0.70375	0.192094
-1.52	0.58375	0.182288
-1.585	0.85375	0.175963
-1.565	0.83375	0.15425
-1.5025	0.78	0.149469
-1.5	0.73375	0.169769
-1.5725	0.82625	0.162038
-1.48	0.81	0.161419
-1.5125	0.68375	0.170394
-1.4775	0.65875	0.182625
-1.4075	0.69	0.193181
-1.565	0.83875	0.179869
-1.4075	0.68875	0.1717
-1.47	0.7325	0.171569
-1.5275	0.81375	0.162431
-1.5075	0.78375	0.1591
-1.56	0.835	0.162906
-1.51	0.80625	0.153369
-1.495	0.73875	0.157925
-1.465	0.60125	0.188325
-1.5075	0.76875	0.191737
-1.53	0.74875	0.176475
-1.4575	0.75125	0.164725
-1.465	0.7175	0.182144
-1.4775	0.77625	0.161156
-1.5275	0.8325	0.163481
-1.5425	0.815	0.161125
-1.4975	0.7525	0.179225
-1.44	0.65875	0.174106
-1.3925	0.6325	0.180331
-1.3175	0.55125	0.206919
-1.5075	0.6025	0.188956
-1.4125	0.53875	0.188056
-1.4175	0.65375	0.192162
-1.46	0.74125	0.176437
-1.515	0.73125	0.182437
-1.5125	0.8125	0.172156
-1.54	0.77125	0.188556
-1.5175	0.7675	0.163056
-1.4975	0.75375	0.169756
-1.5125	0.735	0.173356
-1.6325	0.87125	0.170569
-1.47	0.7725	0.169956
-1.4475	0.67875	0.159044
-1.46	0.7525	0.160919
-1.4075	0.68875	0.177131
-1.4375	0.665	0.179294
-1.495	0.71875	0.193644
-1.49	0.75	0.166694
-1.4825	0.72125	0.201506
-1.5	0.70875	0.1617
-1.465	0.69625	0.192937
-1.43	0.695	0.182769
-1.4675	0.72125	0.166219
-1.575	0.8375	0.155044
-1.4725	0.785	0.159688
-1.6525	0.85625	0.157481
-1.475	0.7775	0.173606
-1.475	0.71125	0.176331
-1.4875	0.77625	0.166912
-1.495	0.765	0.161306
-1.4275	0.72125	0.171731
-1.6125	0.825	0.164644
-1.4525	0.71625	0.172631
-1.405	0.71125	0.178875
-1.485	0.79	0.172944
-1.3925	0.56125	0.189656
-1.4375	0.55375	0.195625
-1.545	0.83125	0.192575
-1.4275	0.72375	0.171212
-1.61	0.8425	0.151494
-1.48	0.7875	0.149337
-1.5825	0.84	0.157287
-1.47	0.72375	0.173744
-1.6225	0.8425	0.152644
-1.4775	0.74125	0.177681
-1.485	0.73875	0.171175
-1.3375	0.5775	0.195981
-1.34	0.53625	0.199894
-1.4925	0.75375	0.189263
-1.5875	0.83875	0.184375
-1.5975	0.8575	0.164531
-1.4875	0.80625	0.156469
-1.38	0.34125	0.183487
-1.235	0.1575	0.229356
-1.4575	0.15875	0.213381
-1.39	0.50625	0.230162
-1.4225	0.68625	0.2088
-1.5125	0.74875	0.161537
-1.4725	0.7375	0.171931
-1.52	0.7025	0.167575
-1.4675	0.78125	0.171831
-1.5575	0.74	0.164631
-1.43	0.6875	0.176663
-1.465	0.62	0.179788
-1.3525	0.7175	0.192225
-1.5575	0.79125	0.174194
-1.2225	0.35875	0.199838
-1.4425	0.57875	0.216312
-1.375	0.60625	0.199288
-1.455	0.73625	0.1791
-1.555	0.8325	0.166694
-1.535	0.80375	0.173144
-1.5125	0.68875	0.18245
-1.4925	0.79125	0.163637
-1.4675	0.74875	0.16705
-1.33	0.6125	0.185881
-1.42	0.7	0.178663
-1.4425	0.7375	0.1792
-1.5025	0.78	0.167413
-1.3675	0.67625	0.178006
-1.4875	0.76875	0.19115
-1.4825	0.6875	0.188181
-1.51	0.76625	0.177931
-1.495	0.77625	0.18985
-1.4925	0.71875	0.187625
-1.4825	0.78375	0.1896
-1.525	0.715	0.169131
-1.585	0.68875	0.177294
-1.51	0.685	0.178331
-1.55	0.6925	0.192337
-1.4225	0.69875	0.177831
-1.3875	0.67875	0.173962
-1.4475	0.73625	0.188862
-1.41	0.60375	0.186975
-1.5675	0.805	0.193181
-1.5025	0.77125	0.159669
-1.3875	0.6375	0.173206
-1.3825	0.60625	0.181069
-1.415	0.6425	0.197406
-1.55	0.80125	0.169106
-1.5625	0.78375	0.163437
-1.42	0.545	0.192981
-1.455	0.705	0.2044
-1.485	0.79875	0.168781
-1.5375	0.78375	0.157762
-1.5675	0.64875	0.164862
-1.5275	0.815	0.178281
-1.3975	0.60875	0.182981
-1.3575	0.565	0.192894
-1.425	0.755	0.195738
-1.545	0.805	0.1951
-1.495	0.75625	0.160931
-1.4975	0.7325	0.184756
-1.37	0.64125	0.189194
-1.495	0.79625	0.185175
-1.4525	0.73375	0.187238
-1.51	0.7875	0.158381
-1.5275	0.715	0.17475
-1.495	0.7575	0.151775
-1.455	0.735	0.172725
-1.43	0.6975	0.177775
-1.41	0.67375	0.178206
-1.4875	0.6725	0.192331
-1.5625	0.74375	0.165094
-1.5125	0.7525	0.166569
-1.535	0.765	0.17525
-1.4725	0.66	0.1769
-1.335	0.54125	0.201644
-1.3775	0.58875	0.199775
-1.59	0.83875	0.184513
-1.49	0.77	0.178644
-1.53	0.77875	0.167731
-1.53	0.8075	0.168494
-1.4075	0.7025	0.166163
-1.405	0.7175	0.179287
-1.4625	0.655	0.188525
-1.4825	0.53125	0.191181
-1.4325	0.58125	0.2054
-1.39	0.535	0.205256
-1.465	0.64625	0.212556
-1.6275	0.8325	0.182094
-1.5325	0.80625	0.152606
-1.58	0.8075	0.185431
-1.51	0.75875	0.163606
-1.5625	0.8325	0.172169
-1.4025	0.665	0.172275
-1.4975	0.7625	0.175963
-1.45	0.72875	0.164269
-1.395	0.65125	0.187475
-1.38	0.70625	0.164387
-1.3625	0.6375	0.190819
-1.46	0.71	0.175263
-1.475	0.7675	0.163188
-1.585	0.7725	0.160475
-1.3875	0.49875	0.169406
-1.535	0.7775	0.179406
-1.365	0.72875	0.167044
-1.4475	0.57375	0.184838
-1.3975	0.6375	0.192444
-1.4225	0.7675	0.182288
-1.3575	0.51375	0.182369
-1.4225	0.65125	0.190437
-1.35	0.67	0.195819
-1.4175	0.6225	0.180538
-1.5325	0.7975	0.186125
-1.485	0.7625	0.169363
-1.2925	0.53375	0.179581
-1.39	0.59375	0.18705
-1.3875	0.6675	0.188431
-1.5	0.60125	0.190731
-1.5175	0.5925	0.181431
-1.4825	0.755	0.187725
-1.4475	0.675	0.168875
-1.45	0.70875	0.183919
-1.4575	0.62125	0.191812
-1.445	0.70875	0.203463
-1.45	0.64125	0.186537
-1.2925	0.52375	0.196813
-1.335	0.33625	0.21785
-1.355	0.02	0.215069
-1.2875	-0.37	0.222838
-1.4	-0.21375	0.224869
-1.3925	-0.44375	0.21765
-1.39	-0.4175	0.211969
-1.3575	-0.14	0.233075
-1.37	-0.31625	0.225131
-1.3325	-0.365	0.218756
-1.14	-0.1375	0.218787
-1.38	0.12375	0.220356
-1.31	0.1875	0.232219
-1.33	0.0925	0.226713
-1.3875	0.395	0.224575
-1.375	0.5075	0.20995
-1.445	0.6625	0.209
-1.4675	0.77875	0.178081
-1.5225	0.79875	0.1563
-1.5425	0.81625	0.167213
-1.5475	0.83375	0.158
-1.4125	0.75	0.164031
-1.4125	0.60375	0.178581
-1.5375	0.645	0.186519
-1.505	0.7825	0.188463
-1.53	0.7575	0.153737
-1.415	0.70875	0.184169
-1.51	0.795	0.165831
-1.42	0.5975	0.179638
-1.555	0.8	0.205238
-1.53	0.77625	0.185281
-1.4175	0.73	0.177769
-1.6075	0.8525	0.172587
-1.6	0.84875	0.160419
-1.4325	0.71375	0.176275
-1.485	0.72	0.191694
-1.4525	0.7075	0.182663
-1.4825	0.7675	0.164587
-1.43	0.65625	0.183381
-1.5125	0.69	0.176744
-1.57	0.80375	0.167356
-1.525	0.805	0.171606
-1.5375	0.7875	0.1699
-1.4975	0.755	0.178962
-1.4075	0.70875	0.181481
-1.5625	0.7975	0.185444
-1.4825	0.80125	0.169719
-1.445	0.63125	0.181563
-1.485	0.76375	0.171475
-1.475	0.7275	0.165069
-1.4175	0.495	0.197512
-1.32	0.41125	0.201694
-1.3725	0.345	0.209831
-1.36	0.62625	0.223931
-1.5325	0.77875	0.181038
-1.4475	0.76875	0.166
-1.445	0.75	0.165731
-1.4275	0.67875	0.174044
-1.505	0.75375	0.158475
-1.49	0.73125	0.168575
-1.53	0.755	0.174944
-1.39	0.7375	0.17095
-1.405	0.61	0.1949
-1.44	0.67	0.197112
-1.5875	0.84375	0.176744
-1.4175	0.595	0.169869
-1.51	0.78	0.199275
-1.54	0.75875	0.167631
-1.505	0.7675	0.191869
-1.4575	0.76625	0.173531
-1.3475	0.57	0.174631
-1.485	0.6775	0.191988
-1.39	0.6775	0.199438
-1.5	0.7175	0.179487
-1.5025	0.76625	0.178769
-1.495	0.8	0.162656
-1.5075	0.7425	0.166962
-1.4375	0.685	0.177475
-1.4175	0.5575	0.192913
-1.505	0.78	0.168762
-1.485	0.7825	0.162575
-1.45	0.68375	0.183944
-1.4275	0.6725	0.166956
-1.4725	0.805	0.176212
-1.515	0.79625	0.173469
-1.4125	0.69875	0.158537
-1.4275	0.71125	0.165387
-1.4925	0.8025	0.174744
-1.4975	0.775	0.172437
-1.56	0.82375	0.163156
-1.4975	0.74125	0.1638
-1.5825	0.82375	0.166737
-1.4775	0.76375	0.166788
-1.405	0.67875	0.17645
-1.535	0.7875	0.190294
-1.575	0.7675	0.168788
-1.4425	0.73625	0.160219
-1.4225	0.6625	0.171631
-1.44	0.72125	0.184681
-1.5675	0.79125	0.162387
-1.615	0.8275	0.153844
-1.4675	0.7225	0.1722
-1.54	0.8125	0.178337
-1.48	0.72875	0.163244
-1.4675	0.745	0.171206
-1.455	0.6725	0.174088
-1.4225	0.73375	0.173106
-1.4025	0.67125	0.167875
-1.565	0.84	0.173506
-1.545	0.76125	0.169106
-1.5525	0.82875	0.1717
-1.4625	0.74375	0.16735
-1.5025	0.78	0.177819
-1.46	0.7725	0.179862
-1.545	0.825	0.175662
-1.425	0.68	0.1778
-1.535	0.78375	0.173969
-1.49	0.77	0.160169
-1.475	0.74	0.173212
-1.4625	0.7625	0.165263
-1.5525	0.78	0.18095
-1.46	0.68	0.167712
-1.3175	0.5425	0.180613
-1.5075	0.75625	0.181894
-1.37	0.625	0.194131
-1.345	0.68375	0.199006
-1.43	0.58875	0.187287
-1.455	0.68625	0.201513
-1.495	0.8	0.180669
-1.3275	0.64625	0.165369
-1.5175	0.80625	0.164513
-1.4375	0.71125	0.170563
-1.5275	0.78375	0.178237
-1.4925	0.72	0.170206
-1.48	0.78125	0.178969
-1.44	0.78625	0.176138
-1.4925	0.7975	0.161606
-1.335	0.65375	0.180269
-1.43	0.52375	0.214388
-1.35	0.58	0.208344
-1.455	0.7025	0.182563
-1.455	0.74875	0.175781
-1.4475	0.67125	0.1643
-1.565	0.81875	0.1637
-1.6125	0.83125	0.171875
-1.41	0.68	0.186519
-1.41	0.68625	0.169294
-1.585	0.8325	0.167794
-1.3625	0.64	0.176012
-1.6175	0.85625	0.174619
-1.4775	0.795	0.170081
-1.405	0.74375	0.166369
-1.4725	0.73	0.169831
-1.4475	0.59625	0.179369
-1.435	0.475	0.209956
-1.4225	0.63	0.1978
-1.5475	0.815	0.174
-1.495	0.73125	0.185256
-1.42	0.6725	0.173331
-1.42	0.725	0.2036
-1.3775	0.5975	0.1686
-1.34	0.3525	0.20805
-1.4175	0.43	0.221013
-1.3025	0.415	0.226038
-1.415	0.6625	0.208363
-1.49	0.73625	0.188394
-1.3525	0.60625	0.1853
-1.415	0.68125	0.173212
-1.5325	0.7975	0.184194
-1.5375	0.80625	0.169656
-1.49	0.81	0.171194
-1.4175	0.64	0.185525
-1.535	0.81875	0.163481
-1.4225	0.745	0.165844
-1.4875	0.67125	0.167631
-1.4725	0.60875	0.18735
-1.5225	0.81375	0.169462
-1.555	0.80375	0.178175
-1.5375	0.795	0.169406
-1.515	0.77375	0.165431
-1.4675	0.66125	0.172838
-1.4375	0.6525	0.193594
-1.4725	0.655	0.195387
-1.4325	0.69375	0.172994
-1.34	0.4775	0.191881
-1.3825	0.61375	0.199931
-1.3875	0.60625	0.178825
-1.4425	0.78375	0.187537
-1.3925	0.68375	0.160437
-1.4775	0.70125	0.17435
-1.445	0.70875	0.19055
-1.4975	0.8075	0.167206
-1.405	0.63625	0.184606
-1.4325	0.57	0.197019
-1.3875	0.52	0.20435
-1.3875	0.48625	0.202006
-1.425	0.45625	0.211825
-1.49	0.63375	0.200975
-1.3375	0.4975	0.199506
-1.5425	0.7625	0.199775
-1.42	0.71	0.163575
-1.3925	0.71	0.192937
-1.5075	0.77625	0.184144
-1.47	0.72125	0.18325
-1.405	0.6875	0.154094
-1.46	0.72	0.1984
-1.535	0.75	0.193875
-1.36	0.62625	0.173819
-1.5125	0.72625	0.2025
-1.3175	0.61625	0.178275
-1.495	0.795	0.178656
-1.5175	0.80875	0.152756
-1.3625	0.43125	0.203175
-1.42	0.39875	0.221663
-1.43	0.3925	0.215506
-1.4175	0.3775	0.213188
-1.2975	0.18125	0.237494
-1.3425	0.2425	0.243731
-1.4975	0.53625	0.212944
-1.4175	0.70125	0.172225
-1.4875	0.69625	0.199887
-1.415	0.7175	0.179669
-1.36	0.635	0.1966
-1.4875	0.745	0.19245
-1.4	0.655	0.179275
-1.3275	0.525	0.198412
-1.5275	0.8225	0.17095
-1.5525	0.79125	0.154256
-1.5325	0.75375	0.1655
-1.54	0.77375	0.148212
-1.47	0.77625	0.1761
-1.385	0.58125	0.190275
-1.4675	0.7175	0.185806
-1.4575	0.7775	0.16385
-1.48	0.765	0.167638
-1.475	0.7675	0.186962
-1.4075	0.615	0.174675
-1.285	0.55875	0.205881
-1.38	0.63625	0.190375
-1.535	0.79625	0.177663
-1.4275	0.75375	0.1581
-1.4075	0.7225	0.161981
-1.4975	0.785	0.165912
-1.48	0.7025	0.174875
-1.385	0.60125	0.190244
-1.4525	0.675	0.191556
-1.4775	0.70625	0.180356
-1.465	0.78	0.182394
-1.525	0.76625	0.168331
-1.4275	0.75875	0.168188
-1.545	0.7225	0.168331
-1.59	0.81375	0.163319
-1.5025	0.7725	0.175306
-1.435	0.745	0.186225
-1.585	0.8425	0.1644
-1.5125	0.76625	0.166831
-1.5225	0.775	0.171756
-1.3275	0.685	0.167162
-1.42	0.65	0.189025
-1.4425	0.6725	0.189238
-1.3975	0.655	0.18255
-1.3925	0.6	0.186687
-1.47	0.75375	0.196244
-1.535	0.795	0.168469
-1.4275	0.775	0.179437
-1.5125	0.75	0.1699
-1.4175	0.63375	0.183419
-1.3975	0.635	0.200156
-1.34	0.4025	0.2244
-1.435	0.54125	0.198019
-1.3575	0.34	0.220931
-1.3425	0.275	0.222775
-1.4575	0.515	0.200825
-1.3825	0.48875	0.214569
-1.4475	0.69625	0.2088
-1.38	0.49875	0.19135
-1.4275	0.58375	0.207262
-1.4675	0.74875	0.187725
-1.4875	0.795	0.171231
-1.585	0.83375	0.165831
-1.385	0.555	0.169156
-1.5575	0.785	0.187575
-1.4025	0.66	0.18475
-1.48	0.74625	0.170344
-1.39	0.64625	0.18765
-1.495	0.79125	0.189737
-1.48	0.75375	0.154988
-1.455	0.78	0.186706
-1.58	0.8275	0.1688
-1.41	0.60375	0.187944
