# nm = 1024 nc = 100 len = 40 extf = 0 beta = 0.448
#energy 	magnetization 	acceptance
-1.6175	0.85	0.146437
-1.5175	0.76125	0.155969
-1.48	0.715	0.170394
-1.595	0.83125	0.161506
-1.48	0.73625	0.166275
-1.405	0.5825	0.175069
-1.56	0.83875	0.165744
-1.3775	0.63125	0.159825
-1.6525	0.87875	0.177625
-1.5725	0.775	0.144144
-1.47	0.68	0.16575
-1.54	0.805	0.178113
-1.515	0.815	0.143375
-1.5125	0.79875	0.153144
-1.445	0.68625	0.161112
-1.505	0.75875	0.160263
-1.575	0.855	0.145644
-1.42	0.675	0.156512
-1.535	0.79625	0.152269
-1.4125	0.7375	0.161456
-1.5275	0.73875	0.169006
-1.6325	0.845	0.151694
-1.46	0.76875	0.177956
-1.56	0.8025	0.160494
-1.455	0.76875	0.154956
-1.4775	0.65625	0.1754
-1.4925	0.6925	0.160956
-1.625	0.80625	0.182169
-1.565	0.84	0.161206
-1.5325	0.79375	0.138819
-1.5175	0.77625	0.1654
-1.55	0.76875	0.158725
-1.4825	0.7375	0.158081
-1.4075	0.715	0.166462
-1.4175	0.6875	0.179425
-1.5325	0.69	0.19225
-1.41	0.55125	0.201056
-1.425	0.34875	0.2102
-1.4325	0.7025	0.188881
-1.41	0.5875	0.181725
-1.56	0.745	0.1871
-1.5725	0.82875	0.158556
-1.5575	0.79625	0.16775
-1.465	0.705	0.171969
-1.395	0.6525	0.177462
-1.415	0.31375	0.197869
-1.4	-0.035	0.222594
-1.2475	-0.05875	0.211394
-1.3525	-0.0725	0.218544
-1.3925	-0.0875	0.219775
-1.325	0.00375	0.227206
-1.405	0.295	0.213969
-1.3275	0.49875	0.202044
-1.4625	0.77	0.195981
-1.4275	0.72875	0.180694
-1.49	0.6475	0.166956
-1.52	0.80875	0.165494
-1.45	0.755	0.163969
-1.435	0.69	0.170513
-1.52	0.78875	0.172131
-1.5675	0.84375	0.155325
-1.6275	0.80875	0.162538
-1.48	0.65875	0.149225
-1.4875	0.7275	0.179931
-1.3875	0.6225	0.172725
-1.4925	0.65	0.1836
-1.545	0.765	0.192613
-1.51	0.7725	0.167638
-1.4025	0.54125	0.174769
-1.4275	0.43375	0.207525
-1.27	0.27	0.210369
-1.3175	0.17375	0.210431
-1.405	0.36125	0.197213
-1.36	0.4875	0.214444
-1.415	0.7225	0.182275
-1.615	0.8675	0.174575
-1.4325	0.575	0.168538
-1.365	0.6175	0.169163
-1.49	0.7625	0.16935
-1.375	0.5875	0.160575
-1.6025	0.82875	0.163906
-1.5	0.765	0.146631
-1.4825	0.75	0.1624
-1.51	0.7675	0.149125
-1.5475	0.78625	0.164544
-1.68	0.87375	0.170738
-1.475	0.75625	0.152612
-1.5775	0.8425	0.148719
-1.485	0.7375	0.15405
-1.2725	0.4375	0.1791
-1.3675	0.6075	0.19285
-1.3975	0.665	0.16475
-1.545	0.82625	0.173419
-1.42	0.60875	0.17965
-1.42	0.67	0.189694
-1.51	0.805	0.157912
-1.5	0.7825	0.150913
-1.5325	0.79625	0.159906
-1.4525	0.61125	0.1759
-1.455	0.68625	0.191625
-1.515	0.76125	0.164688
-1.5175	0.79	0.154006
-1.4	0.6925	0.16815
-1.5225	0.81875	0.167219
-1.64	0.88	0.141256
-1.5675	0.76625	0.162119
-1.535	0.8025	0.156094
-1.4775	0.755	0.15865
-1.5225	0.6775	0.158375
-1.3625	0.5675	0.1999
-1.5475	0.81875	0.182606
-1.44	0.645	0.160206
-1.525	0.78875	0.177456
-1.55	0.80125	0.168575
-1.4025	0.67375	0.15865
-1.61	0.84625	0.152312
-1.6575	0.88375	0.151638
-1.5325	0.82	0.152306
-1.5125	0.78125	0.148556
-1.5075	0.72875	0.168513
-1.5325	0.6975	0.173594
-1.4975	0.76125	0.155381
-1.52	0.75625	0.172088
-1.4675	0.7125	0.163694
-1.4375	0.69125	0.161206
-1.5425	0.79625	0.161263
-1.555	0.74125	0.142113
-1.445	0.445	0.177994
-1.5175	0.67125	0.201369
-1.55	0.6	0.169019
-1.42	0.4675	0.201788
-1.3775	0.49125	0.187819
-1.3375	0.29875	0.205825
-1.46	0.55125	0.198475
-1.395	0.59625	0.19245
-1.47	0.76	0.188994
-1.6075	0.8525	0.153012
-1.4525	0.625	0.161737
-1.5075	0.73	0.171588
-1.48	0.615	0.187488
-1.5325	0.78	0.165837
-1.4525	0.74	0.160688
-1.5475	0.78375	0.180219
-1.575	0.8125	0.157394
-1.4575	0.795	0.155638
-1.355	0.69	0.173838
-1.4275	0.69125	0.170331
-1.4475	0.6475	0.170469
-1.5175	0.81	0.17005
-1.415	0.62	0.169312
-1.39	0.42875	0.205156
-1.4675	0.69	0.184119
-1.4925	0.72625	0.184619
-1.455	0.6275	0.159181
-1.455	0.66625	0.189219
-1.51	0.685	0.176244
-1.4575	0.73625	0.179031
-1.495	0.7525	0.162419
-1.47	0.63	0.171137
-1.4575	0.705	0.185912
-1.3525	0.64375	0.173644
-1.4975	0.76	0.193531
-1.4875	0.71625	0.161081
-1.525	0.7675	0.153356
-1.4525	0.74	0.148425
-1.485	0.77375	0.174219
-1.5975	0.8475	0.151219
-1.4025	0.7075	0.16175
-1.43	0.74875	0.160969
-1.4625	0.72125	0.1583
-1.51	0.71	0.154131
-1.3825	0.67125	0.198431
-1.4875	0.75375	0.183762
-1.43	0.72625	0.153737
-1.5775	0.84625	0.1626
-1.5725	0.81125	0.167375
-1.3975	0.685	0.164219
-1.4775	0.715	0.175712
-1.5625	0.74875	0.164406
-1.4175	0.72625	0.168825
-1.445	0.63875	0.16205
-1.4425	0.53125	0.190537
-1.58	0.7325	0.180281
-1.5725	0.7675	0.171563
-1.535	0.775	0.1735
-1.5125	0.79125	0.157969
-1.505	0.77125	0.17025
-1.5825	0.83375	0.155388
-1.4275	0.65375	0.186537
-1.585	0.84	0.166244
-1.5025	0.78375	0.157044
-1.505	0.7525	0.161581
-1.6275	0.845	0.156163
-1.46	0.65125	0.175494
-1.4325	0.65125	0.170425
-1.4	0.61875	0.1745
-1.5925	0.8325	0.172619
-1.6	0.82	0.171563
-1.6	0.82	0.169513
-1.485	0.77625	0.159969
-1.4	0.67625	0.169263
-1.55	0.76625	0.171125
-1.4125	0.64875	0.18085
-1.4225	0.69	0.179856
-1.4975	0.73625	0.168144
-1.56	0.835	0.154081
-1.365	0.63	0.17285
-1.51	0.75625	0.175219
-1.5	0.6875	0.194231
-1.575	0.80875	0.165456
-1.575	0.82875	0.149987
-1.47	0.76875	0.147338
-1.4825	0.70875	0.16535
-1.525	0.78	0.149631
-1.595	0.8475	0.150688
-1.5	0.79625	0.146194
-1.5875	0.79875	0.168075
-1.485	0.7725	0.184481
-1.5675	0.83875	0.144219
-1.49	0.76625	0.1546
-1.5125	0.815	0.162981
-1.6225	0.8375	0.164013
-1.3625	0.545	0.184
-1.575	0.83125	0.178156
-1.4425	0.71375	0.156062
-1.4075	0.6725	0.180106
-1.5675	0.77875	0.163319
-1.4425	0.66875	0.171988
-1.48	0.6825	0.193094
-1.53	0.80875	0.182244
-1.5	0.68	0.154856
-1.4475	0.52375	0.192181
-1.4825	0.52875	0.2051
-1.3125	0.45	0.196756
-1.4175	0.645	0.20035
-1.5	0.7175	0.174638
-1.5525	0.79875	0.167994
-1.595	0.83125	0.155275
-1.4975	0.80625	0.154388
-1.5725	0.825	0.151419
-1.445	0.73125	0.156281
-1.54	0.74375	0.16435
-1.53	0.835	0.159706
-1.605	0.85625	0.153481
-1.505	0.805	0.148519
-1.5025	0.7725	0.154675
-1.3675	0.58625	0.164931
-1.405	0.71125	0.201225
-1.5225	0.72625	0.160138
-1.535	0.77875	0.163263
-1.4175	0.69625	0.166938
-1.57	0.80375	0.166412
-1.5325	0.83125	0.152037
-1.55	0.83125	0.151237
-1.645	0.8625	0.142169
-1.4975	0.78625	0.142444
-1.57	0.8125	0.156656
-1.6575	0.8725	0.156488
-1.57	0.7875	0.17055
-1.5375	0.82375	0.150081
-1.5225	0.7675	0.155744
-1.555	0.775	0.147187
-1.415	0.6675	0.166137
-1.3875	0.65375	0.180556
-1.495	0.7875	0.175544
-1.4825	0.755	0.163837
-1.5225	0.76125	0.167594
-1.4575	0.66625	0.18065
-1.52	0.78125	0.178463
-1.405	0.68625	0.166925
-1.455	0.69125	0.18155
-1.4025	0.6775	0.170569
-1.43	0.685	0.172825
-1.505	0.8025	0.158675
-1.5925	0.85375	0.153306
-1.5075	0.79	0.155381
-1.48	0.765	0.150175
-1.3325	0.66375	0.162594
-1.4725	0.77625	0.173875
-1.495	0.74375	0.170338
-1.5475	0.81125	0.170575
-1.4925	0.63	0.161294
-1.4525	0.74625	0.157831
-1.475	0.75375	0.165862
-1.5425	0.83875	0.179025
-1.445	0.73875	0.16255
-1.5025	0.7525	0.148381
-1.53	0.81875	0.153794
-1.425	0.6625	0.158631
-1.5025	0.77125	0.182506
-1.3925	0.65375	0.179513
-1.435	0.6625	0.184106
-1.6	0.79	0.16845
-1.58	0.8575	0.148588
-1.3925	0.6575	0.163163
-1.5125	0.705	0.18345
-1.4575	0.75875	0.158044
-1.56	0.8225	0.158081
-1.5275	0.71625	0.181769
-1.4925	0.7825	0.150694
-1.4975	0.7175	0.169163
-1.5875	0.80125	0.168556
-1.4125	0.67	0.173394
-1.6	0.8175	0.158513
-1.535	0.80125	0.180081
-1.585	0.795	0.154431
-1.59	0.84625	0.149769
-1.5825	0.835	0.156044
-1.49	0.72125	0.157356
-1.485	0.76375	0.1524
-1.575	0.81125	0.158787
-1.4625	0.75375	0.162963
-1.5325	0.84125	0.156163
-1.5525	0.78125	0.164725
-1.4825	0.79625	0.159187
-1.485	0.79375	0.156312
-1.465	0.69	0.177681
-1.4275	0.72	0.1777
-1.5525	0.83375	0.163319
-1.59	0.855	0.152594
-1.425	0.68875	0.161131
-1.4825	0.73375	0.173337
-1.3675	0.65125	0.195837
-1.4225	0.6625	0.191694
-1.42	0.69375	0.168569
-1.625	0.875	0.157444
-1.515	0.77	0.162312
-1.455	0.7275	0.17255
-1.4975	0.70875	0.162769
-1.48	0.7675	0.181819
-1.455	0.735	0.169288
-1.48	0.72875	0.180606
-1.5625	0.82375	0.1756
-1.6075	0.85125	0.156713
-1.515	0.7475	0.150831
-1.3725	0.64125	0.173294
-1.6075	0.84625	0.168725
-1.535	0.79125	0.155913
-1.4425	0.73	0.165819
-1.515	0.7725	0.1562
-1.5	0.78125	0.158031
-1.53	0.7325	0.164694
-1.48	0.77	0.171187
-1.56	0.77	0.150013
-1.585	0.8575	0.166687
-1.445	0.76875	0.169269
-1.5375	0.81375	0.164213
-1.59	0.82	0.160644
-1.4975	0.7275	0.153213
-1.4025	0.67125	0.173319
-1.595	0.81	0.166531
-1.64	0.85125	0.162806
-1.4025	0.65875	0.155137
-1.465	0.5775	0.194044
-1.3975	0.56875	0.196194
-1.53	0.77125	0.179375
-1.4475	0.735	0.169606
-1.43	0.69625	0.158244
-1.43	0.58875	0.182237
-1.495	0.7975	0.183431
-1.48	0.77625	0.171394
-1.51	0.78625	0.1567
-1.5025	0.69375	0.1697
-1.465	0.65625	0.183637
-1.35	0.56625	0.194763
-1.445	0.67375	0.176287
-1.3375	0.53	0.204181
-1.3275	0.31	0.21065
-1.3875	0.305	0.201338
-1.275	0.13125	0.206894
-1.26	0.1725	0.216119
-1.37	0.26	0.214225
-1.4225	0.55375	0.192081
-1.45	0.77375	0.1769
-1.4475	0.63125	0.171112
-1.5	0.795	0.156994
-1.495	0.655	0.1681
-1.47	0.765	0.164975
-1.48	0.77	0.160675
-1.46	0.76875	0.177769
-1.5	0.76	0.188294
-1.555	0.755	0.163975
-1.43	0.66375	0.191206
-1.4875	0.63625	0.181363
-1.36	0.70875	0.172825
-1.59	0.84	0.155731
-1.6425	0.865	0.154363
-1.4225	0.73375	0.168844
-1.585	0.84125	0.163287
-1.5825	0.7975	0.156819
-1.5725	0.785	0.165688
-1.535	0.77375	0.158231
-1.5	0.76125	0.150913
-1.6075	0.8725	0.155856
-1.5475	0.8275	0.150388
-1.555	0.745	0.156463
-1.5025	0.7725	0.152662
-1.475	0.79125	0.146869
-1.5425	0.74625	0.159612
-1.61	0.8725	0.166606
-1.4075	0.71625	0.162044
-1.42	0.72	0.173281
-1.5075	0.755	0.166775
-1.5625	0.8025	0.161988
-1.475	0.70875	0.176669
-1.5375	0.735	0.177719
-1.435	0.60125	0.169706
-1.465	0.72375	0.1892
-1.4425	0.66375	0.183038
-1.6575	0.8925	0.163731
-1.42	0.735	0.173975
-1.595	0.8175	0.162875
-1.44	0.69625	0.168331
-1.5225	0.755	0.168794
-1.5175	0.75875	0.157519
-1.46	0.74625	0.172712
-1.49	0.73875	0.169375
-1.3275	0.50625	0.208825
-1.525	0.79125	0.181563
-1.5425	0.74125	0.147137
-1.5825	0.84375	0.1733
-1.5375	0.82	0.150444
-1.385	0.66625	0.147919
-1.5575	0.8275	0.164981
-1.5575	0.81625	0.165006
-1.42	0.76875	0.155725
-1.58	0.83	0.154356
-1.475	0.75375	0.169106
-1.3975	0.67125	0.16395
-1.4675	0.78875	0.17845
-1.445	0.7375	0.157619
-1.5275	0.81625	0.152056
-1.475	0.75125	0.155825
-1.48	0.765	0.156056
-1.565	0.83	0.168325
-1.52	0.76625	0.169081
-1.51	0.745	0.153056
-1.4975	0.6925	0.161263
-1.4425	0.54375	0.189394
-1.5125	0.73625	0.187275
-1.555	0.785	0.162519
-1.4775	0.7975	0.157888
-1.47	0.76625	0.168356
-1.345	0.585	0.190806
-1.5325	0.8125	0.181775
-1.5675	0.84125	0.150344
-1.5925	0.82125	0.162538
-1.4675	0.685	0.152069
-1.57	0.8275	0.173938
-1.525	0.77125	0.156944
-1.5225	0.7825	0.163831
-1.6025	0.79625	0.174831
-1.5775	0.80125	0.171788
-1.5075	0.755	0.157981
-1.485	0.69875	0.160131
-1.4575	0.7525	0.157669
-1.5975	0.8125	0.156463
-1.3475	0.65625	0.164006
-1.46	0.65	0.177781
-1.56	0.79125	0.191019
-1.495	0.6475	0.175944
-1.4925	0.76625	0.176206
-1.495	0.7475	0.164606
-1.445	0.76625	0.169081
-1.53	0.72125	0.163875
-1.475	0.80125	0.151487
-1.6325	0.78375	0.166163
-1.4575	0.75125	0.167263
-1.5025	0.79375	0.1649
-1.41	0.7225	0.176831
-1.4625	0.74875	0.176081
-1.485	0.77625	0.152688
-1.5775	0.80375	0.157688
-1.5875	0.8475	0.149144
-1.5575	0.78	0.163337
-1.36	0.615	0.176275
-1.4375	0.685	0.188188
-1.405	0.55875	0.208794
-1.5375	0.76375	0.172213
-1.5425	0.8325	0.160644
-1.5575	0.805	0.164575
-1.52	0.76125	0.172844
-1.5225	0.75375	0.165575
-1.3425	0.38125	0.189763
-1.3125	0.46	0.211631
-1.4825	0.66375	0.187194
-1.48	0.67625	0.171788
-1.485	0.78625	0.1594
-1.45	0.71	0.159044
-1.6	0.85125	0.144044
-1.5325	0.79125	0.164062
-1.6425	0.8325	0.164006
-1.5225	0.7975	0.16645
-1.4725	0.76	0.16855
-1.5125	0.75125	0.167794
-1.5575	0.69625	0.1937
-1.4775	0.7725	0.172644
-1.385	0.68375	0.176456
-1.515	0.72	0.173569
-1.59	0.865	0.152375
-1.46	0.68375	0.147719
-1.625	0.82	0.148969
-1.5525	0.8025	0.164875
-1.58	0.82375	0.151606
-1.5925	0.8425	0.152756
-1.45	0.75875	0.145344
-1.49	0.71125	0.166238
-1.59	0.81875	0.16975
-1.53	0.795	0.150531
-1.425	0.67125	0.176869
-1.4525	0.7575	0.169306
-1.6425	0.86375	0.148569
-1.4425	0.63875	0.15775
-1.5875	0.85125	0.171788
-1.5875	0.84375	0.143375
-1.4625	0.76375	0.165225
-1.5875	0.84375	0.147937
-1.5325	0.75875	0.170075
-1.615	0.8725	0.153594
-1.5125	0.785	0.154
-1.61	0.85125	0.155156
-1.4575	0.675	0.155256
-1.38	0.68125	0.180469
-1.445	0.73625	0.170012
-1.5775	0.81125	0.16575
-1.505	0.745	0.156431
-1.59	0.82375	0.161381
-1.4825	0.77	0.171919
-1.61	0.82125	0.186419
-1.5825	0.82	0.154169
-1.525	0.7875	0.150875
-1.5675	0.78875	0.165694
-1.4375	0.69375	0.167437
-1.635	0.83125	0.177962
-1.5275	0.715	0.177056
-1.435	0.76125	0.196069
-1.5125	0.7525	0.173356
-1.57	0.82875	0.153919
-1.545	0.77875	0.15395
-1.5325	0.78875	0.173975
-1.5325	0.77875	0.154812
-1.58	0.8225	0.152969
-1.6275	0.8575	0.15225
-1.55	0.81375	0.166531
-1.5625	0.82125	0.154888
-1.5025	0.7825	0.162919
-1.465	0.69	0.190862
-1.4425	0.7475	0.166337
-1.5225	0.7275	0.1749
-1.485	0.71875	0.182406
-1.5025	0.76625	0.181487
-1.5775	0.805	0.154631
-1.44	0.57375	0.178744
-1.525	0.78875	0.167738
-1.3875	0.425	0.181906
-1.335	0.555	0.2123
-1.5125	0.73625	0.189056
-1.36	0.64875	0.175712
-1.52	0.79125	0.177312
-1.645	0.845	0.150531
-1.5025	0.7875	0.170938
-1.5475	0.83625	0.162056
-1.465	0.7675	0.171394
-1.4	0.62875	0.159856
-1.4825	0.7275	0.169356
-1.455	0.75375	0.165081
-1.435	0.7875	0.161144
-1.56	0.84625	0.158556
-1.52	0.815	0.144594
-1.57	0.79875	0.151906
-1.4325	0.75125	0.153762
-1.445	0.74625	0.148712
-1.4275	0.77125	0.158425
-1.6125	0.86625	0.149138
-1.4675	0.73125	0.15425
-1.5075	0.69875	0.171675
-1.3975	0.7175	0.172069
-1.4475	0.76125	0.159181
-1.4775	0.75125	0.156775
-1.5	0.74625	0.159375
-1.585	0.84	0.159956
-1.3575	0.475	0.19525
-1.4825	0.77875	0.192119
-1.4825	0.71625	0.16405
-1.64	0.89	0.157606
-1.5125	0.695	0.156062
-1.505	0.7575	0.171363
-1.475	0.7625	0.178775
-1.4675	0.755	0.166862
-1.4825	0.72	0.165038
-1.4675	0.71625	0.159181
-1.405	0.75375	0.158225
-1.4675	0.745	0.176081
-1.5275	0.7825	0.175675
-1.4725	0.6575	0.178788
-1.4875	0.76875	0.165344
-1.555	0.76125	0.155025
-1.6275	0.885	0.140856
-1.52	0.78625	0.163269
-1.4675	0.69375	0.166
-1.5775	0.83125	0.166812
-1.485	0.795	0.168356
-1.5125	0.81875	0.143844
-1.5525	0.7975	0.145806
-1.5875	0.80625	0.156619
-1.4875	0.77625	0.165625
-1.49	0.7925	0.162406
-1.4775	0.77125	0.163469
-1.47	0.73875	0.1699
-1.6025	0.79	0.164231
-1.4175	0.72	0.160975
-1.5475	0.78875	0.164606
-1.525	0.71375	0.159738
-1.48	0.765	0.159869
-1.45	0.64625	0.159406
-1.61	0.86125	0.167538
-1.45	0.64625	0.171762
-1.34	0.475	0.189169
-1.61	0.8575	0.152438
-1.5325	0.835	0.15245
-1.4575	0.69125	0.153731
-1.395	0.64125	0.1814
-1.5175	0.76	0.176419
-1.435	0.71875	0.177556
-1.425	0.74125	0.172638
-1.4425	0.76125	0.164862
-1.53	0.7725	0.177881
-1.525	0.7375	0.167038
-1.47	0.7275	0.178888
-1.465	0.75375	0.188031
-1.565	0.8	0.162206
-1.5975	0.85125	0.162269
-1.43	0.595	0.172094
-1.51	0.78875	0.180719
-1.585	0.82	0.162731
-1.4475	0.745	0.14945
-1.5125	0.77625	0.161669
-1.545	0.77375	0.152675
-1.4675	0.73	0.161869
-1.495	0.80125	0.154431
-1.3625	0.7175	0.180556
-1.4475	0.585	0.165463
-1.4825	0.6975	0.18835
-1.4225	0.67125	0.176694
-1.41	0.66875	0.172987
-1.5925	0.82125	0.160212
-1.5575	0.82625	0.1475
-1.5175	0.82	0.151331
-1.54	0.7875	0.159662
-1.57	0.82875	0.147944
-1.4575	0.7125	0.179194
-1.515	0.795	0.174063
-1.585	0.83625	0.158869
-1.41	0.72375	0.162437
-1.475	0.77125	0.145437
-1.5625	0.7975	0.163331
-1.5125	0.76125	0.167719
-1.6075	0.8625	0.159444
-1.4425	0.705	0.158463
-1.5175	0.7325	0.154087
-1.4975	0.7475	0.16385
-1.4175	0.74	0.170187
-1.4425	0.77875	0.162794
-1.595	0.86	0.162894
-1.5225	0.76875	0.167231
-1.5225	0.76875	0.166588
-1.41	0.68875	0.174025
-1.475	0.67	0.169569
-1.4875	0.7775	0.162888
-1.63	0.8675	0.148488
-1.5475	0.8075	0.14475
-1.63	0.87625	0.153806
-1.4525	0.6425	0.189681
-1.51	0.775	0.169325
-1.47	0.73125	0.146769
-1.4575	0.73625	0.158225
-1.465	0.715	0.163069
-1.4425	0.75125	0.157706
-1.405	0.67625	0.167325
-1.4125	0.67625	0.165325
-1.425	0.695	0.173106
-1.6825	0.89375	0.156656
-1.6325	0.83375	0.155688
-1.4725	0.69	0.169106
-1.4975	0.65375	0.184344
-1.5025	0.7725	0.172631
-1.5525	0.78625	0.160969
-1.41	0.64125	0.177712
-1.45	0.6325	0.188769
-1.4675	0.68125	0.175606
-1.585	0.8425	0.172269
-1.5275	0.81	0.147075
-1.5275	0.7025	0.160275
-1.4825	0.8025	0.14905
-1.505	0.7475	0.1577
-1.5375	0.78625	0.162956
-1.5625	0.81	0.167256
-1.505	0.68	0.165975
-1.5175	0.68	0.167638
-1.5075	0.68	0.1797
-1.5475	0.745	0.170413
-1.465	0.74125	0.175106
-1.52	0.7375	0.165206
-1.33	0.5775	0.188362
-1.4225	0.74625	0.188819
-1.51	0.7375	0.171444
-1.4875	0.71	0.174088
-1.595	0.795	0.165775
-1.435	0.67625	0.180044
-1.485	0.77375	0.164387
-1.545	0.81	0.157544
-1.5375	0.76625	0.164919
-1.46	0.68625	0.183925
-1.535	0.8025	0.178106
-1.5475	0.79	0.148225
-1.6475	0.8125	0.163525
-1.565	0.78875	0.166281
-1.53	0.78625	0.163038
-1.4575	0.66625	0.18065
-1.5225	0.72375	0.181775
-1.5275	0.81375	0.162075
-1.5925	0.82875	0.156175
-1.6475	0.84375	0.1505
-1.485	0.6225	0.159719
-1.47	0.5775	0.190263
-1.4275	0.71125	0.195481
-1.5325	0.7775	0.147081
-1.6175	0.86875	0.156806
-1.5375	0.81375	0.162525
-1.455	0.73	0.148419
-1.4975	0.75875	0.171381
-1.515	0.8025	0.156006
-1.465	0.77625	0.167781
-1.5075	0.715	0.180044
-1.36	0.52	0.196462
-1.5875	0.82125	0.181219
-1.5875	0.8375	0.163931
-1.5425	0.80875	0.147044
-1.4125	0.64625	0.183625
-1.54	0.80875	0.175175
-1.4625	0.7725	0.165106
-1.5275	0.76375	0.178281
-1.5725	0.855	0.156556
-1.5425	0.79625	0.166444
-1.44	0.7475	0.166194
-1.4225	0.71625	0.173094
-1.46	0.75125	0.16225
-1.525	0.8075	0.157519
-1.565	0.83375	0.156244
-1.515	0.66875	0.173263
-1.5225	0.7825	0.177319
-1.4325	0.68125	0.185169
-1.4525	0.77625	0.14905
-1.46	0.73625	0.176675
-1.4125	0.6975	0.159694
-1.5275	0.7525	0.174825
-1.3625	0.4275	0.196375
-1.3675	0.2675	0.215613
-1.4625	0.61125	0.208894
-1.5725	0.7725	0.165319
-1.49	0.76875	0.144731
-1.5625	0.81625	0.163325
-1.4225	0.5675	0.175894
-1.3725	0.3225	0.204188
-1.4025	0.615	0.202475
-1.51	0.7975	0.1658
-1.43	0.66875	0.171444
-1.455	0.735	0.168506
-1.4775	0.66375	0.176069
-1.4275	0.64375	0.175637
-1.545	0.82125	0.174275
-1.445	0.705	0.164844
-1.46	0.7	0.170125
-1.3975	0.6925	0.188325
-1.5225	0.7925	0.169363
-1.4875	0.79875	0.154231
-1.5575	0.78875	0.159313
-1.425	0.66	0.189644
-1.5825	0.78625	0.179644
-1.5	0.7225	0.153069
-1.44	0.5825	0.187638
-1.4325	0.56375	0.184219
-1.4825	0.755	0.176306
-1.53	0.81375	0.145381
-1.3625	0.64625	0.162137
-1.445	0.715	0.170069
-1.4825	0.80125	0.161469
-1.545	0.81375	0.156512
-1.5725	0.82	0.162644
-1.5325	0.75375	0.160781
-1.5125	0.77125	0.17815
-1.48	0.76125	0.162538
-1.47	0.7075	0.160294
-1.5675	0.82625	0.174069
-1.4225	0.64375	0.161313
-1.45	0.75625	0.189887
-1.5775	0.79875	0.157488
-1.5	0.77375	0.155075
-1.4925	0.69875	0.158525
-1.5	0.74	0.174469
-1.47	0.78375	0.176294
-1.41	0.7	0.167644
-1.5875	0.84125	0.149006
-1.565	0.76875	0.161912
-1.4275	0.75875	0.157213
-1.5925	0.85375	0.155675
-1.5525	0.77625	0.15465
-1.395	0.7625	0.145694
-1.605	0.82375	0.157444
-1.54	0.76875	0.155725
-1.5725	0.82375	0.1586
-1.49	0.76	0.162044
-1.385	0.52375	0.182294
-1.4975	0.65625	0.186975
-1.46	0.7475	0.168819
-1.42	0.76625	0.173494
-1.545	0.8025	0.146369
-1.4625	0.77875	0.172344
-1.5325	0.78	0.156581
-1.6125	0.83125	0.160894
-1.6325	0.8725	0.149256
-1.5	0.71875	0.153931
-1.3875	0.71875	0.168637
-1.5275	0.7925	0.150019
-1.4325	0.67625	0.153194
-1.43	0.7275	0.167719
-1.4825	0.73375	0.162919
-1.6175	0.81375	0.183213
-1.5225	0.76125	0.16585
-1.4125	0.57375	0.175463
-1.385	0.52375	0.189537
-1.4875	0.74125	0.187287
-1.5675	0.85	0.159531
-1.5325	0.8375	0.1513
-1.61	0.84	0.140588
-1.61	0.8675	0.14365
-1.5725	0.85	0.15895
-1.4925	0.805	0.15715
-1.5225	0.78375	0.165769
-1.4575	0.69625	0.169063
-1.565	0.855	0.163206
-1.5925	0.8275	0.16705
-1.5675	0.8325	0.163775
-1.4425	0.6675	0.166737
-1.3375	0.51875	0.191456
-1.5825	0.83	0.181494
-1.4125	0.6225	0.172113
-1.43	0.69625	0.189856
-1.555	0.75375	0.162538
-1.5175	0.80875	0.1603
-1.485	0.75625	0.157662
-1.4875	0.765	0.156631
-1.4325	0.6025	0.1796
-1.37	0.5125	0.210113
-1.555	0.7975	0.181262
-1.52	0.76	0.17135
-1.44	0.73625	0.169181
-1.4975	0.715	0.167906
-1.5475	0.85125	0.156806
-1.47	0.6825	0.169981
-1.54	0.74375	0.188944
-1.475	0.6975	0.184219
-1.635	0.85875	0.147631
-1.45	0.6325	0.163844
-1.42	0.4525	0.192862
-1.485	0.5025	0.197475
-1.495	0.645	0.1873
-1.5725	0.76625	0.168694
-1.485	0.765	0.162694
-1.4275	0.7225	0.175237
-1.5275	0.81	0.154675
-1.53	0.815	0.160287
-1.4975	0.75875	0.153369
-1.445	0.58375	0.173575
-1.5075	0.76875	0.184762
-1.4625	0.73625	0.161313
-1.525	0.77	0.168894
-1.42	0.56875	0.187494
-1.5375	0.77375	0.190663
-1.6175	0.8625	0.149281
-1.5675	0.80125	0.155269
-1.635	0.845	0.158419
-1.4675	0.72	0.159
-1.5275	0.77	0.151325
-1.47	0.69625	0.186269
-1.5975	0.83625	0.1623
-1.5775	0.81	0.152094
-1.475	0.7525	0.162913
-1.4675	0.6	0.172525
-1.5075	0.7175	0.187825
-1.51	0.8025	0.168212
-1.54	0.82375	0.160556
-1.515	0.7625	0.158294
-1.395	0.7075	0.173437
-1.6375	0.87875	0.150569
-1.4925	0.7025	0.149469
-1.57	0.7	0.18845
-1.475	0.64125	0.201431
-1.4175	0.69625	0.178475
-1.42	0.695	0.164056
-1.4775	0.715	0.16105
-1.59	0.8225	0.163463
-1.5575	0.83375	0.148544
-1.5275	0.7475	0.178706
-1.47	0.77375	0.174881
-1.5575	0.82875	0.157012
-1.4825	0.75375	0.154287
-1.3525	0.575	0.175756
-1.52	0.70875	0.182056
-1.415	0.53125	0.201288
-1.4525	0.5625	0.190606
-1.3525	0.39625	0.223931
-1.405	0.355	0.208731
-1.445	0.3625	0.189563
-1.365	0.4425	0.184963
-1.4975	0.6875	0.18905
-1.4375	0.6375	0.183975
-1.4375	0.75	0.165837
-1.4075	0.71375	0.158394
-1.495	0.72125	0.170463
-1.5225	0.81	0.150281
-1.545	0.83	0.163325
-1.535	0.785	0.168538
-1.49	0.7775	0.158862
-1.5425	0.8075	0.161275
-1.49	0.76125	0.152806
-1.4675	0.7525	0.170694
-1.475	0.7025	0.17735
-1.525	0.73	0.166313
-1.665	0.88	0.163538
-1.555	0.83	0.154037
-1.55	0.82125	0.146244
-1.58	0.80875	0.161725
-1.5475	0.8225	0.152194
-1.38	0.6225	0.158425
-1.52	0.72625	0.205194
-1.4475	0.72875	0.165225
-1.5475	0.74	0.151006
-1.4025	0.64875	0.181444
-1.5225	0.81625	0.166588
-1.57	0.8425	0.153681
-1.425	0.67	0.1727
-1.535	0.7925	0.180012
-1.5525	0.725	0.150762
-1.4725	0.7025	0.161988
-1.565	0.825	0.163837
-1.5275	0.78625	0.146194
-1.455	0.74	0.174894
-1.4625	0.71	0.169137
-1.5675	0.7925	0.169025
-1.46	0.69625	0.175394
-1.6075	0.85125	0.158325
-1.3625	0.6425	0.167931
-1.48	0.78125	0.160956
-1.4475	0.7125	0.163869
-1.4125	0.76	0.172187
-1.4275	0.62875	0.187244
-1.5475	0.79375	0.152737
-1.495	0.805	0.161194
-1.5025	0.76625	0.160706
-1.535	0.71	0.151544
-1.5275	0.81	0.170112
-1.5075	0.715	0.164513
-1.51	0.76125	0.170731
-1.4925	0.66125	0.18145
-1.5125	0.76375	0.171625
-1.485	0.7825	0.158181
-1.49	0.76875	0.152731
-1.5475	0.7925	0.163019
-1.5225	0.75	0.185737
-1.35	0.5625	0.19365
-1.4075	0.64125	0.190581
-1.6525	0.85875	0.164413
-1.5775	0.77875	0.165662
-1.58	0.835	0.151656
-1.5	0.68	0.165075
-1.5425	0.7575	0.18305
-1.5175	0.785	0.1505
-1.4625	0.73375	0.170369
-1.6025	0.855	0.159506
-1.52	0.79625	0.160131
-1.57	0.8025	0.159619
-1.63	0.86	0.149688
-1.43	0.7475	0.153163
-1.5625	0.73875	0.162594
-1.4875	0.79	0.165281
-1.5625	0.80625	0.168706
-1.5225	0.775	0.175244
-1.49	0.785	0.167425
-1.5125	0.76875	0.152244
-1.4925	0.78625	0.174013
-1.4875	0.7925	0.158569
-1.4875	0.7825	0.168325
-1.49	0.7475	0.1633
-1.5475	0.785	0.159787
-1.5125	0.80875	0.160656
-1.61	0.78	0.154069
-1.2825	0.475	0.199025
-1.4475	0.5675	0.196412
-1.4525	0.46	0.183987
-1.545	0.665	0.199363
-1.36	0.49	0.189075
-1.45	0.71125	0.179744
-1.4825	0.77125	0.164075
-1.475	0.7575	0.157181
-1.4525	0.7325	0.1619
-1.6575	0.88375	0.152719
-1.5825	0.815	0.142194
-1.5375	0.84	0.145712
-1.395	0.70875	0.167481
-1.54	0.77875	0.1727
-1.58	0.81625	0.1666
-1.51	0.79	0.148781
-1.575	0.79125	0.177344
-1.5225	0.76625	0.14745
-1.54	0.80625	0.1523
-1.55	0.82625	0.147538
-1.6325	0.77875	0.181012
-1.46	0.7225	0.178831
-1.4725	0.75625	0.178294
-1.51	0.79375	0.159238
-1.5825	0.80625	0.172937
-1.49	0.7375	0.161894
-1.4275	0.68	0.159163
