# nm = 1024 nc = 100 len = 50 extf = 0 beta = 0.454
#energy 	magnetization 	acceptance
-1.5504	0.7848	0.158156
-1.52	0.776	0.14982
-1.5488	0.788	0.142796
-1.3936	0.6112	0.166708
-1.44	0.5256	0.186444
-1.4496	0.5256	0.200008
-1.4256	0.4744	0.1828
-1.3792	0.164	0.207448
-1.4032	0.424	0.208156
-1.3936	0.2744	0.198484
-1.416	0.4328	0.1858
-1.4368	0.588	0.188688
-1.5296	0.7896	0.174264
-1.5472	0.8328	0.147336
-1.5152	0.8072	0.14196
-1.5664	0.8416	0.140636
-1.56	0.7944	0.148372
-1.5216	0.8088	0.139024
-1.552	0.788	0.14444
-1.5136	0.7792	0.143468
-1.5328	0.8016	0.143928
-1.5344	0.804	0.16334
-1.5504	0.8064	0.139196
-1.4896	0.7	0.167196
-1.528	0.78	0.157888
-1.5568	0.8128	0.141308
-1.6352	0.8536	0.1479
-1.544	0.812	0.14256
-1.6016	0.848	0.140652
-1.5152	0.8024	0.14806
-1.5744	0.7936	0.16334
-1.552	0.784	0.159472
-1.6128	0.8424	0.137988
-1.4672	0.6504	0.161904
-1.5088	0.7632	0.166372
-1.608	0.8224	0.164904
-1.5904	0.7984	0.151488
-1.6224	0.8016	0.151096
-1.5408	0.7368	0.165116
-1.5392	0.78	0.151448
-1.6144	0.856	0.14618
-1.5376	0.8272	0.133368
-1.5856	0.8312	0.138556
-1.5344	0.8008	0.139224
-1.6016	0.8368	0.14598
-1.5424	0.808	0.137776
-1.5648	0.832	0.1408
-1.6144	0.8464	0.14984
-1.4784	0.7384	0.159308
-1.6208	0.8568	0.157376
-1.512	0.792	0.146572
-1.6048	0.8488	0.15166
-1.4848	0.7192	0.145
-1.616	0.8608	0.146292
-1.6464	0.8656	0.136456
-1.5744	0.8128	0.151816
-1.5808	0.8344	0.151844
-1.552	0.8208	0.149212
-1.4752	0.6528	0.164464
-1.5536	0.8064	0.162104
-1.5088	0.7768	0.143028
-1.6176	0.8272	0.163412
-1.5312	0.6768	0.162264
-1.5312	0.7736	0.159092
-1.592	0.788	0.155064
-1.5024	0.7656	0.155976
-1.576	0.824	0.145364
-1.4528	0.7232	0.159816
-1.568	0.7784	0.173476
-1.5984	0.8376	0.146712
-1.5376	0.8168	0.152368
-1.5056	0.7584	0.151852
-1.528	0.78	0.16722
-1.4976	0.8024	0.147336
-1.5328	0.7808	0.137644
-1.552	0.804	0.147868
-1.5984	0.8384	0.148068
-1.6016	0.8392	0.159308
-1.4432	0.6832	0.168236
-1.6048	0.8384	0.147576
-1.5728	0.836	0.133172
-1.6096	0.804	0.14916
-1.5168	0.6128	0.163372
-1.5648	0.8248	0.169804
-1.6016	0.82	0.152816
-1.4704	0.6728	0.154528
-1.504	0.7872	0.162404
-1.6208	0.8608	0.14612
-1.488	0.7784	0.14902
-1.5904	0.8416	0.159068
-1.5424	0.7888	0.139592
-1.5472	0.8216	0.15346
-1.6016	0.8312	0.138648
-1.5904	0.8432	0.15546
-1.5344	0.8024	0.136852
-1.5664	0.7872	0.15702
-1.5456	0.8232	0.151244
-1.6192	0.8472	0.13344
-1.456	0.596	0.164344
-1.5664	0.8144	0.1687
-1.48	0.732	0.154732
-1.5312	0.82	0.147256
-1.6016	0.8432	0.144492
-1.5136	0.772	0.148428
-1.5168	0.7376	0.159188
-1.464	0.732	0.16166
-1.5936	0.8528	0.14978
-1.5984	0.8112	0.143832
-1.5328	0.788	0.153956
-1.5936	0.8368	0.141876
-1.5632	0.8424	0.137716
-1.5632	0.7952	0.140364
-1.648	0.8736	0.141848
-1.4592	0.7576	0.143444
-1.5856	0.8144	0.151188
-1.5776	0.8336	0.146648
-1.5296	0.7552	0.149768
-1.5856	0.8264	0.141876
-1.5296	0.7808	0.148652
-1.5264	0.7232	0.148408
-1.4976	0.6928	0.171408
-1.5408	0.8176	0.153488
-1.6144	0.8488	0.136868
-1.552	0.808	0.143628
-1.592	0.8288	0.144968
-1.6048	0.856	0.15188
-1.5184	0.7544	0.13834
-1.552	0.7872	0.1567
-1.5584	0.8168	0.141052
-1.4944	0.728	0.157044
-1.5632	0.8184	0.14642
-1.456	0.752	0.157532
-1.592	0.8368	0.145512
-1.5504	0.8288	0.160064
-1.5408	0.784	0.143928
-1.5184	0.7656	0.164652
-1.4496	0.696	0.15502
-1.4864	0.784	0.165568
-1.5904	0.8552	0.135916
-1.5968	0.8504	0.14668
-1.496	0.7808	0.15086
-1.5584	0.7952	0.148816
-1.504	0.788	0.159004
-1.472	0.7168	0.15462
-1.4992	0.748	0.158804
-1.5328	0.8128	0.145516
-1.5568	0.8208	0.141024
-1.6176	0.8568	0.142308
-1.592	0.8464	0.135804
-1.504	0.78	0.143916
-1.5488	0.8016	0.133772
-1.5712	0.8328	0.143412
-1.5072	0.788	0.156672
-1.5888	0.8376	0.148216
-1.4688	0.6488	0.149608
-1.5088	0.7376	0.165316
-1.4656	0.7688	0.166644
-1.5408	0.824	0.143556
-1.5712	0.7864	0.151956
-1.48	0.7584	0.148524
-1.5712	0.8392	0.154916
-1.5648	0.8024	0.145768
-1.4944	0.7392	0.150012
-1.5264	0.568	0.177648
-1.4288	0.5408	0.18004
-1.3792	0.5472	0.186584
-1.4832	0.5424	0.167064
-1.4352	0.656	0.180472
-1.5248	0.792	0.163752
-1.4944	0.7688	0.143012
-1.504	0.7168	0.169772
-1.4544	0.764	0.161596
-1.5328	0.6848	0.154284
-1.6144	0.8592	0.158272
-1.6016	0.8296	0.144804
-1.5664	0.828	0.146504
-1.5632	0.7896	0.139568
-1.6416	0.8224	0.153676
-1.4608	0.76	0.159936
-1.6096	0.8488	0.14386
-1.4928	0.7464	0.14356
-1.584	0.8208	0.152308
-1.5408	0.808	0.149224
-1.5456	0.8232	0.149364
-1.6128	0.836	0.138408
-1.5776	0.812	0.140968
-1.6112	0.8312	0.138064
-1.4832	0.7176	0.144464
-1.4528	0.752	0.166044
-1.5472	0.764	0.1655
-1.6064	0.8616	0.144824
-1.624	0.8416	0.150052
-1.4912	0.7536	0.152864
-1.5008	0.776	0.158584
-1.5328	0.7848	0.155116
-1.5056	0.7328	0.15006
-1.544	0.8104	0.150068
-1.5792	0.812	0.148144
-1.5808	0.7976	0.150704
-1.4304	0.6992	0.15666
-1.5472	0.5944	0.178892
-1.5296	0.648	0.16522
-1.5856	0.8104	0.17462
-1.5072	0.768	0.155196
-1.4656	0.7512	0.149908
-1.5536	0.8128	0.145428
-1.6112	0.8352	0.15648
-1.6688	0.8848	0.140312
-1.5216	0.7728	0.149128
-1.488	0.6992	0.160608
-1.5264	0.7592	0.169972
-1.4896	0.7528	0.159064
-1.5728	0.8184	0.14984
-1.5344	0.756	0.14236
-1.464	0.6696	0.164312
-1.5344	0.6952	0.164736
-1.4928	0.7688	0.147568
-1.6496	0.8656	0.135692
-1.5776	0.8048	0.151768
-1.5152	0.7744	0.151624
-1.5792	0.7672	0.150596
-1.5008	0.7272	0.15332
-1.472	0.7624	0.141152
-1.5552	0.7904	0.155508
-1.5392	0.824	0.15612
-1.6128	0.8104	0.141284
-1.5552	0.784	0.155444
-1.5568	0.8232	0.156188
-1.5392	0.8	0.143684
-1.5296	0.776	0.14464
-1.496	0.756	0.153668
-1.44	0.7392	0.160244
-1.5952	0.8384	0.14004
-1.5376	0.7544	0.139644
-1.4576	0.7008	0.167996
-1.544	0.7904	0.171608
-1.5024	0.7224	0.149956
-1.496	0.7808	0.152588
-1.5216	0.7608	0.143084
-1.5312	0.7912	0.145616
-1.5664	0.8072	0.138688
-1.4608	0.6472	0.161096
-1.4816	0.7608	0.154208
-1.5408	0.8104	0.148552
-1.5264	0.7864	0.144064
-1.512	0.7512	0.156408
-1.5552	0.7712	0.159716
-1.5584	0.8256	0.156496
-1.5712	0.8384	0.146064
-1.5616	0.8088	0.143588
-1.5568	0.8184	0.14232
-1.4864	0.7536	0.14338
-1.5904	0.8432	0.14572
-1.5232	0.7256	0.148604
-1.584	0.8072	0.1606
-1.616	0.8384	0.143804
-1.6	0.8464	0.132968
-1.5664	0.812	0.145076
-1.6064	0.8176	0.142188
-1.5968	0.8376	0.143764
-1.504	0.7816	0.153928
-1.4944	0.7904	0.14482
-1.5808	0.8312	0.144492
-1.56	0.8112	0.144052
-1.568	0.8136	0.143332
-1.5024	0.7848	0.144696
-1.6192	0.8472	0.143008
-1.5552	0.8032	0.148676
-1.544	0.7664	0.161008
-1.5408	0.7872	0.156704
-1.4864	0.7936	0.140368
-1.5456	0.808	0.14164
-1.5824	0.8304	0.166248
-1.4976	0.764	0.150716
-1.5856	0.8408	0.154336
-1.6032	0.844	0.141864
-1.512	0.7184	0.149452
-1.568	0.8296	0.158196
-1.5744	0.836	0.14944
-1.5648	0.8088	0.154304
-1.4432	0.7128	0.141928
-1.576	0.8112	0.156996
-1.4384	0.7424	0.149072
-1.5232	0.792	0.157096
-1.5872	0.8312	0.154268
-1.5296	0.7112	0.150344
-1.488	0.6632	0.163368
-1.5472	0.808	0.168356
-1.4928	0.7136	0.160064
-1.5888	0.844	0.153468
-1.6544	0.8536	0.144552
-1.5744	0.7848	0.151296
-1.6768	0.8568	0.151672
-1.4672	0.7	0.15424
-1.5152	0.7552	0.166604
-1.5728	0.8136	0.158452
-1.528	0.78	0.149352
-1.6016	0.8288	0.144628
-1.5536	0.7752	0.160644
-1.6208	0.8472	0.158456
-1.512	0.804	0.13864
-1.5824	0.824	0.149172
-1.5792	0.8216	0.14002
-1.5872	0.804	0.142856
-1.4896	0.7792	0.14506
-1.5824	0.852	0.145836
-1.5856	0.8232	0.148408
-1.592	0.8464	0.147508
-1.5072	0.8	0.145672
-1.4976	0.7328	0.157744
-1.3984	0.7152	0.1602
-1.5056	0.7448	0.148964
-1.5792	0.8272	0.143612
-1.592	0.8376	0.138548
-1.64	0.8704	0.140724
-1.5488	0.7896	0.137492
-1.5488	0.792	0.157972
-1.6032	0.8272	0.146824
-1.5408	0.8128	0.1492
-1.6064	0.7976	0.138852
-1.4752	0.6864	0.16034
-1.4768	0.7448	0.155708
-1.5744	0.8488	0.14136
-1.5968	0.8472	0.146624
-1.544	0.8352	0.137628
-1.5328	0.768	0.14308
-1.5552	0.8032	0.14436
-1.5968	0.8312	0.140388
-1.6192	0.8568	0.132864
-1.6128	0.8512	0.152124
-1.5904	0.8328	0.137868
-1.4448	0.716	0.153824
-1.544	0.756	0.16776
-1.5632	0.7504	0.152908
-1.5296	0.7608	0.151116
-1.5936	0.828	0.159392
-1.5648	0.82	0.147048
-1.5584	0.804	0.148392
-1.4368	0.6896	0.16818
-1.5344	0.792	0.167304
-1.4976	0.772	0.150044
-1.5424	0.808	0.14594
-1.6384	0.872	0.146944
-1.5904	0.812	0.136324
-1.5696	0.7952	0.139532
-1.608	0.8384	0.156328
-1.6048	0.832	0.152488
-1.528	0.7872	0.14024
-1.6016	0.8432	0.14032
-1.5232	0.7984	0.143488
-1.6736	0.8768	0.139288
-1.6096	0.8504	0.135964
-1.5072	0.8016	0.155244
-1.5504	0.788	0.14614
-1.5296	0.7488	0.15538
-1.5504	0.704	0.15664
-1.4304	0.676	0.16754
-1.5568	0.8184	0.156496
-1.504	0.74	0.13984
-1.4512	0.7592	0.153904
-1.5552	0.8176	0.151196
-1.5632	0.836	0.154172
-1.4944	0.7792	0.164452
-1.6448	0.8504	0.147316
-1.536	0.7984	0.151364
-1.5776	0.8192	0.15648
-1.4784	0.712	0.142632
-1.5504	0.808	0.142592
-1.5104	0.816	0.144264
-1.4928	0.7808	0.148584
-1.5632	0.8128	0.1452
-1.4496	0.7144	0.148468
-1.5136	0.7888	0.167684
-1.5136	0.7328	0.153752
-1.5232	0.716	0.172332
-1.5328	0.7384	0.162496
-1.568	0.8192	0.152452
-1.5984	0.8152	0.147876
-1.6016	0.8304	0.134884
-1.6336	0.8392	0.145956
-1.5904	0.8064	0.140348
-1.5312	0.7616	0.141024
-1.4368	0.668	0.155644
-1.6592	0.8712	0.147856
-1.5296	0.7912	0.142312
-1.5888	0.816	0.149644
-1.616	0.8608	0.136288
-1.4864	0.7456	0.141736
-1.4704	0.7128	0.162516
-1.5104	0.7544	0.161328
-1.4192	0.7208	0.152544
-1.5136	0.7992	0.154904
-1.5712	0.7992	0.15
-1.6048	0.8608	0.151732
-1.5968	0.8464	0.145816
-1.584	0.7536	0.148552
-1.464	0.676	0.144796
-1.6256	0.8528	0.143388
-1.5168	0.8152	0.1419
-1.6448	0.86	0.144968
-1.5376	0.8104	0.138008
-1.5664	0.8096	0.15194
-1.6256	0.864	0.1408
-1.5312	0.7528	0.143604
-1.5776	0.8496	0.156076
-1.5728	0.8392	0.153772
-1.536	0.7968	0.14738
-1.6544	0.8496	0.146352
-1.5856	0.8152	0.149484
-1.5904	0.8328	0.141136
-1.6288	0.8536	0.14092
-1.5024	0.82	0.143904
-1.4912	0.7456	0.159356
-1.592	0.8184	0.14402
-1.5728	0.8248	0.150336
-1.5104	0.676	0.150248
-1.584	0.7432	0.160864
-1.5248	0.8232	0.157024
-1.4736	0.7464	0.142448
-1.5632	0.7712	0.15726
-1.5792	0.7704	0.165828
-1.6176	0.8496	0.149972
-1.5744	0.8256	0.13928
-1.5984	0.8304	0.136792
-1.5616	0.8056	0.143844
-1.5984	0.8112	0.151044
-1.464	0.7216	0.136136
-1.5664	0.8232	0.154292
-1.552	0.82	0.138304
-1.5936	0.8568	0.13812
-1.5536	0.8208	0.142676
-1.568	0.8192	0.163584
-1.544	0.7664	0.146928
-1.488	0.728	0.159016
-1.5408	0.828	0.146468
-1.512	0.7616	0.140972
-1.4752	0.6992	0.162968
-1.528	0.804	0.13562
-1.5456	0.8048	0.154484
-1.6176	0.8616	0.138572
-1.4688	0.7464	0.144304
-1.5168	0.7864	0.157064
-1.4688	0.7552	0.145996
-1.5504	0.7704	0.151476
-1.52	0.7304	0.151376
-1.576	0.8248	0.151384
-1.5408	0.7944	0.15132
-1.6048	0.8	0.146628
-1.4496	0.6952	0.14762
-1.528	0.8048	0.161412
-1.5232	0.7184	0.153032
-1.5328	0.7352	0.156596
-1.5264	0.808	0.163628
-1.552	0.8256	0.14064
-1.5808	0.8288	0.143744
-1.4944	0.7552	0.142416
-1.5232	0.7824	0.145824
-1.4992	0.704	0.168168
-1.5424	0.7968	0.152584
-1.5552	0.7864	0.156916
-1.512	0.7928	0.145768
-1.5264	0.7712	0.156596
-1.5936	0.8208	0.140792
-1.4768	0.7152	0.151512
-1.4144	0.6952	0.15902
-1.5872	0.8616	0.149896
-1.552	0.8128	0.139332
-1.4768	0.6808	0.155508
-1.5696	0.7672	0.158472
-1.6256	0.8296	0.152024
-1.5616	0.7904	0.153148
-1.5216	0.7968	0.14184
-1.4672	0.7048	0.157932
-1.5616	0.796	0.157128
-1.5632	0.8232	0.15016
-1.616	0.8248	0.140088
-1.4608	0.7432	0.141088
-1.5008	0.784	0.136732
-1.4784	0.7112	0.15858
-1.5312	0.7488	0.175396
-1.5872	0.8392	0.164764
-1.4992	0.752	0.15674
-1.5856	0.808	0.1458
-1.552	0.8168	0.14874
-1.4592	0.7512	0.15632
-1.6368	0.812	0.15628
-1.6064	0.836	0.146408
-1.5424	0.8352	0.141252
-1.4896	0.7488	0.153688
-1.4672	0.76	0.154344
-1.5008	0.74	0.146836
-1.5776	0.8216	0.155256
-1.592	0.7904	0.139676
-1.4864	0.7672	0.162916
-1.4992	0.7256	0.157592
-1.5552	0.808	0.14314
-1.5424	0.7312	0.152592
-1.5616	0.8088	0.15258
-1.464	0.6496	0.160028
-1.488	0.6904	0.175644
-1.4384	0.7024	0.164556
-1.432	0.6472	0.164428
-1.5952	0.816	0.152532
-1.528	0.7328	0.153224
-1.5104	0.784	0.165136
-1.5936	0.8168	0.151876
-1.5632	0.8048	0.153892
-1.6368	0.868	0.145172
-1.6112	0.8528	0.14562
-1.5472	0.768	0.1536
-1.5328	0.8016	0.147864
-1.6032	0.8384	0.142984
-1.6	0.8448	0.139416
-1.6224	0.8648	0.146316
-1.5632	0.784	0.15294
-1.5904	0.8312	0.156148
-1.56	0.7752	0.163
-1.6208	0.8416	0.148844
-1.5504	0.8016	0.152488
-1.4928	0.7328	0.146896
-1.5616	0.7792	0.163368
-1.5696	0.824	0.155784
-1.4848	0.7648	0.137272
-1.5504	0.8184	0.142764
-1.496	0.7288	0.1584
-1.4848	0.564	0.178944
-1.5296	0.6904	0.18376
-1.544	0.7864	0.176216
-1.5472	0.7216	0.149308
-1.592	0.8224	0.151568
-1.4848	0.6968	0.157308
-1.5008	0.7224	0.15984
-1.4848	0.6792	0.176952
-1.5424	0.7776	0.162252
-1.5856	0.812	0.151388
-1.4768	0.756	0.157432
-1.4736	0.756	0.150072
-1.4976	0.7648	0.15982
-1.5232	0.7744	0.148712
-1.6128	0.8512	0.153224
-1.5344	0.8016	0.136552
-1.5648	0.8016	0.144304
-1.56	0.8216	0.151484
-1.512	0.7904	0.141084
-1.5504	0.7536	0.168952
-1.5408	0.8232	0.155044
-1.4976	0.7376	0.147804
-1.4992	0.732	0.15518
-1.5152	0.7576	0.176456
-1.4928	0.7728	0.157068
-1.6208	0.8528	0.14664
-1.584	0.8144	0.148912
-1.5136	0.7768	0.1417
-1.584	0.8112	0.143756
-1.5456	0.7728	0.144552
-1.5168	0.7832	0.14774
-1.5872	0.8336	0.146644
-1.5952	0.8504	0.133148
-1.592	0.8472	0.147896
-1.5248	0.8008	0.14876
-1.5568	0.8216	0.143
-1.5648	0.8056	0.140928
-1.5552	0.812	0.1632
-1.52	0.7616	0.146684
-1.512	0.7936	0.151456
-1.5216	0.7624	0.143124
-1.5216	0.8056	0.151848
-1.5936	0.8448	0.149716
-1.5616	0.8128	0.144792
-1.4544	0.7408	0.142776
-1.512	0.7608	0.154596
-1.5136	0.7408	0.164852
-1.4848	0.76	0.150232
-1.4896	0.8032	0.153776
-1.5232	0.764	0.154892
-1.6	0.8552	0.144792
-1.536	0.6024	0.166128
-1.5104	0.7024	0.172356
-1.5008	0.7912	0.149356
-1.6704	0.8632	0.142048
-1.56	0.7896	0.149944
-1.4176	0.7024	0.148348
-1.5168	0.7608	0.164452
-1.5456	0.8192	0.160116
-1.5552	0.8	0.144504
-1.584	0.8192	0.146328
-1.5728	0.8192	0.14868
-1.4848	0.7176	0.145324
-1.5056	0.7832	0.14844
-1.5552	0.8192	0.151508
-1.5312	0.784	0.151512
-1.52	0.7664	0.16964
-1.5952	0.808	0.158464
-1.6576	0.8784	0.138768
-1.616	0.7776	0.14592
-1.5664	0.7848	0.15254
-1.4368	0.6856	0.174944
-1.5888	0.8376	0.17056
-1.5296	0.7808	0.149172
-1.6272	0.8272	0.147336
-1.52	0.7896	0.149708
-1.576	0.8136	0.148048
-1.5552	0.7984	0.14918
-1.5248	0.772	0.160604
-1.5312	0.7304	0.159608
-1.488	0.6688	0.171804
-1.5392	0.7928	0.16294
-1.5872	0.7536	0.151444
-1.4416	0.5816	0.16634
-1.4048	0.5944	0.170464
-1.4928	0.7144	0.173976
-1.56	0.8128	0.15474
-1.5552	0.7976	0.142524
-1.504	0.7888	0.149812
-1.5424	0.8184	0.159572
-1.5696	0.8232	0.139048
-1.4832	0.7424	0.150988
-1.4832	0.6968	0.167596
-1.5968	0.8088	0.147504
-1.5568	0.772	0.150272
-1.4304	0.6832	0.151852
-1.5136	0.7016	0.163436
-1.5152	0.8104	0.156592
-1.5056	0.6976	0.15714
-1.512	0.7944	0.156012
-1.5536	0.7992	0.146512
-1.552	0.8264	0.152792
-1.6016	0.86	0.139432
-1.5744	0.7704	0.13828
-1.5104	0.7784	0.160984
-1.4848	0.6056	0.166208
-1.6	0.8608	0.152364
-1.528	0.8	0.150032
-1.5296	0.784	0.14648
-1.6	0.8568	0.146548
-1.4992	0.768	0.1537
-1.552	0.788	0.154852
-1.4672	0.7624	0.152264
-1.5472	0.7904	0.138964
-1.5088	0.7416	0.14466
-1.5168	0.7568	0.153716
-1.6288	0.86	0.142028
-1.4624	0.7072	0.141252
-1.4592	0.584	0.165264
-1.5328	0.764	0.169164
-1.5472	0.808	0.157908
-1.5392	0.8032	0.16288
-1.584	0.768	0.156336
-1.6048	0.8408	0.154092
-1.5264	0.7584	0.148788
-1.4528	0.6624	0.158168
-1.5168	0.7928	0.16842
-1.5936	0.8464	0.137236
-1.584	0.8328	0.140644
-1.5488	0.808	0.141572
-1.5376	0.8336	0.138872
-1.5488	0.7976	0.15082
-1.5824	0.8048	0.148468
-1.6608	0.8368	0.155824
-1.4464	0.6584	0.155292
-1.4704	0.7248	0.163324
-1.504	0.772	0.158596
-1.5936	0.8152	0.156552
-1.568	0.816	0.160484
-1.5792	0.8072	0.153956
-1.6016	0.7944	0.157536
-1.4864	0.7392	0.151524
-1.5712	0.8272	0.158032
-1.5648	0.8336	0.143712
-1.5088	0.752	0.152584
-1.5984	0.8128	0.143504
-1.5056	0.7832	0.148828
-1.528	0.7856	0.14586
-1.5536	0.8184	0.143348
-1.5424	0.748	0.154272
-1.4768	0.668	0.159784
-1.6	0.8008	0.1644
-1.5792	0.8432	0.149244
-1.5408	0.8176	0.141752
-1.4704	0.736	0.145288
-1.5392	0.7632	0.158384
-1.4816	0.6168	0.167132
-1.5232	0.7392	0.165108
-1.568	0.7904	0.150592
-1.4704	0.776	0.151944
-1.5824	0.8088	0.14758
-1.5376	0.8016	0.148308
-1.5024	0.7784	0.154028
-1.608	0.8472	0.147728
-1.5056	0.812	0.150328
-1.5152	0.7704	0.144328
-1.6224	0.8432	0.148556
-1.5696	0.7456	0.148904
-1.5792	0.8528	0.147704
-1.6336	0.8512	0.139344
-1.6032	0.8496	0.164296
-1.5776	0.84	0.131168
-1.584	0.8432	0.157376
-1.528	0.7968	0.141768
-1.5904	0.8504	0.151412
-1.5568	0.8048	0.137268
-1.5376	0.7808	0.147032
-1.5792	0.8096	0.148384
-1.5952	0.844	0.13998
-1.4528	0.7024	0.142716
-1.5264	0.7928	0.160796
-1.5472	0.8328	0.14644
-1.6	0.8096	0.147428
-1.5296	0.8024	0.15426
-1.5024	0.7464	0.153552
-1.56	0.7984	0.161676
-1.6816	0.8928	0.138288
-1.592	0.8312	0.145084
-1.584	0.824	0.152188
-1.496	0.6504	0.166572
-1.4144	0.5792	0.171484
-1.4672	0.664	0.171736
-1.5472	0.78	0.154276
-1.5088	0.7264	0.154868
-1.4128	0.6584	0.164844
-1.528	0.6488	0.17308
-1.5152	0.6864	0.172916
-1.4864	0.6408	0.175628
-1.5632	0.7808	0.175476
-1.5648	0.8432	0.147464
-1.4064	0.6736	0.160528
-1.5392	0.756	0.162076
-1.5216	0.7808	0.156364
-1.5968	0.8456	0.143524
-1.5488	0.7832	0.145872
-1.5184	0.7576	0.147096
-1.7088	0.8936	0.140872
-1.6688	0.8728	0.139952
-1.5664	0.8152	0.151488
-1.5616	0.8184	0.145592
-1.5456	0.8144	0.149964
-1.6128	0.8152	0.1471
-1.5616	0.8144	0.14334
-1.4624	0.7328	0.154896
-1.6128	0.8168	0.173212
-1.5472	0.812	0.151896
-1.504	0.8008	0.148104
-1.5312	0.772	0.146552
-1.5616	0.8168	0.150608
-1.5696	0.8112	0.152988
-1.576	0.7952	0.14644
-1.5072	0.7672	0.153676
-1.5472	0.7992	0.140664
-1.5264	0.7536	0.161588
-1.4704	0.7016	0.16458
-1.472	0.6984	0.160376
-1.5312	0.7464	0.165752
-1.52	0.7704	0.15948
-1.4736	0.7712	0.156204
-1.5408	0.8272	0.150064
-1.5888	0.8432	0.148768
-1.5392	0.7864	0.143348
-1.5712	0.8256	0.151708
-1.4576	0.6712	0.158628
-1.4432	0.6736	0.182892
-1.5568	0.8184	0.15522
-1.5152	0.7728	0.155556
-1.552	0.7672	0.144972
-1.4368	0.676	0.16392
-1.5456	0.796	0.165128
-1.5824	0.828	0.151816
-1.6	0.8528	0.154948
-1.5424	0.8208	0.144088
-1.6576	0.8816	0.141088
-1.4464	0.7216	0.141792
-1.4912	0.7704	0.151684
-1.576	0.8136	0.152272
-1.5712	0.7896	0.150832
-1.5296	0.8008	0.144904
-1.6176	0.8464	0.167852
-1.5968	0.8216	0.143036
-1.5232	0.7408	0.1639
-1.56	0.7992	0.159468
-1.4176	0.6688	0.17078
-1.6016	0.684	0.176236
-1.5568	0.8224	0.154428
-1.536	0.8192	0.152272
-1.5408	0.7912	0.148796
-1.5456	0.8224	0.150116
-1.5728	0.8072	0.144108
-1.5376	0.7952	0.159284
-1.5248	0.7888	0.147784
-1.5248	0.7744	0.163992
-1.5488	0.7208	0.149076
-1.432	0.4312	0.185
-1.4752	0.584	0.187764
-1.5152	0.552	0.178064
-1.4	0.5312	0.180224
-1.3648	0.5088	0.177352
-1.4352	0.5864	0.17362
-1.5424	0.7256	0.172832
-1.4512	0.6104	0.182304
-1.52	0.7056	0.173804
-1.5168	0.7512	0.16746
-1.6384	0.8712	0.140616
-1.6192	0.8416	0.146812
-1.5552	0.8424	0.134164
-1.568	0.7736	0.146048
-1.5936	0.8344	0.15104
-1.4928	0.8	0.147916
-1.608	0.8456	0.155268
-1.4992	0.6808	0.1606
-1.5344	0.7144	0.164832
-1.5808	0.8272	0.144084
-1.6	0.8576	0.156968
-1.6064	0.8576	0.139232
-1.5584	0.7576	0.14746
-1.496	0.8032	0.155276
-1.6128	0.844	0.150108
-1.4576	0.7176	0.150768
-1.5488	0.74	0.173424
-1.5872	0.808	0.147588
-1.5472	0.8	0.150032
-1.488	0.768	0.1382
-1.5184	0.7744	0.161528
-1.4272	0.7592	0.157124
-1.6144	0.8488	0.14524
-1.6144	0.8464	0.144988
-1.5584	0.8104	0.147796
-1.5392	0.7544	0.144672
-1.5152	0.7744	0.151588
-1.6736	0.8928	0.140752
-1.576	0.8152	0.144204
-1.5232	0.7728	0.142668
-1.5776	0.7528	0.148932
-1.5808	0.7632	0.155676
-1.5232	0.7968	0.140816
-1.4896	0.6632	0.153988
-1.616	0.8552	0.152328
-1.4976	0.7776	0.143388
-1.5152	0.7936	0.151856
-1.5504	0.8368	0.145704
-1.5312	0.8096	0.141424
-1.6032	0.832	0.152032
-1.5168	0.8008	0.15718
-1.6048	0.8336	0.149252
-1.5712	0.8248	0.148164
-1.5456	0.772	0.150856
-1.5888	0.7056	0.166116
-1.5328	0.7968	0.157656
-1.5888	0.832	0.141416
-1.4896	0.7816	0.151508
-1.5584	0.7416	0.158256
-1.5248	0.7672	0.162944
-1.5456	0.7616	0.1589
-1.5408	0.816	0.14412
-1.5824	0.8392	0.143676
-1.5424	0.8072	0.146752
-1.5456	0.7392	0.160836
-1.4768	0.76	0.146968
-1.4944	0.6184	0.1775
-1.4976	0.6376	0.178944
-1.5984	0.836	0.154008
-1.6432	0.8536	0.13708
-1.5312	0.7544	0.145328
-1.5696	0.8144	0.141684
-1.5376	0.7744	0.139952
-1.5504	0.7944	0.152356
-1.4912	0.7112	0.152488
-1.5872	0.7576	0.164688
-1.5872	0.82	0.154992
-1.4768	0.7336	0.149224
-1.5264	0.756	0.159632
-1.56	0.8064	0.149412
-1.6272	0.8584	0.148844
-1.5072	0.74	0.144376
-1.5744	0.8304	0.149724
-1.4832	0.736	0.15452
-1.5168	0.7712	0.156736
-1.5104	0.7688	0.1629
-1.5392	0.7824	0.14822
-1.5056	0.7424	0.161224
-1.4976	0.6888	0.151172
-1.5344	0.6416	0.160228
-1.4128	0.6008	0.171964
-1.544	0.7408	0.172332
-1.544	0.7408	0.158032
-1.5056	0.7624	0.143076
-1.4864	0.7616	0.145012
-1.5328	0.7944	0.161676
-1.5248	0.796	0.165128
-1.6208	0.8624	0.140084
-1.6336	0.8568	0.150684
-1.5824	0.8328	0.153176
-1.5584	0.7936	0.152012
-1.6112	0.8288	0.148896
-1.5632	0.7936	0.14852
-1.5552	0.8016	0.149336
-1.3888	0.6936	0.151468
-1.5072	0.7296	0.156068
-1.5936	0.8272	0.156952
-1.52	0.7552	0.140896
-1.5904	0.8304	0.143816
-1.6128	0.8512	0.1438
-1.5984	0.8384	0.157784
-1.632	0.852	0.139116
-1.52	0.7568	0.144868
-1.576	0.8008	0.147868
-1.4896	0.7776	0.144892
-1.528	0.804	0.139444
-1.472	0.6928	0.149852
-1.5184	0.7576	0.168884
-1.5296	0.8136	0.144928
-1.4848	0.7792	0.142804
-1.4448	0.6976	0.172088
-1.5488	0.7736	0.166932
-1.4768	0.6152	0.17024
-1.5504	0.7752	0.168976
-1.6176	0.8304	0.140364
-1.488	0.724	0.156468
-1.4672	0.6968	0.164312
-1.656	0.8872	0.163496
-1.552	0.8032	0.150924
-1.5456	0.7848	0.147972
-1.5344	0.796	0.151704
-1.5152	0.6472	0.16048
-1.5376	0.6368	0.167068
-1.5168	0.7152	0.162208
-1.5568	0.8184	0.155308
-1.4672	0.6168	0.160512
-1.4304	0.5576	0.183888
-1.5536	0.8048	0.161172
-1.4016	0.6704	0.154376
-1.512	0.7696	0.155424
-1.6832	0.8848	0.159488
-1.5936	0.8432	0.151408
-1.6096	0.8448	0.149616
-1.5168	0.7736	0.160332
-1.6176	0.84	0.14706
-1.5392	0.7984	0.145464
-1.4672	0.76	0.154344
-1.5376	0.7808	0.151944
-1.5024	0.7896	0.154092
-1.5168	0.7528	0.167088
-1.6224	0.84	0.148172
-1.552	0.7864	0.149196
-1.4688	0.7184	0.176356
-1.6592	0.8192	0.163264
-1.5696	0.8272	0.14016
-1.6304	0.8696	0.145052
-1.5904	0.8416	0.14798
-1.6096	0.8336	0.139832
-1.5632	0.82	0.14894
-1.6592	0.8248	0.153576
-1.52	0.736	0.150388
-1.5136	0.764	0.152764
-1.4976	0.7264	0.168556
-1.5664	0.8128	0.149248
-1.5904	0.8376	0.14738
-1.5792	0.8256	0.149508
-1.6384	0.8696	0.136828
-1.488	0.7776	0.150492
-1.4752	0.7336	0.1439
-1.5504	0.7728	0.16438
-1.4336	0.6872	0.158268
-1.5232	0.7992	0.165352
-1.5792	0.816	0.144788
-1.4704	0.7608	0.147612
-1.5312	0.7968	0.138308
-1.5296	0.7936	0.1498
-1.5504	0.808	0.144408
-1.5792	0.804	0.149332
-1.5904	0.8432	0.144724
-1.5616	0.8016	0.145136
-1.5456	0.7984	0.155624
-1.512	0.732	0.162188
-1.5968	0.8168	0.148008
-1.6048	0.844	0.146752
-1.6256	0.8448	0.149356
-1.5392	0.7728	0.161856
-1.5264	0.7864	0.155436
-1.6016	0.7888	0.151052
-1.616	0.8408	0.138436
-1.5248	0.7872	0.150532
-1.5392	0.7872	0.153536
-1.4576	0.7032	0.157596
-1.5776	0.8024	0.156912
-1.5008	0.7904	0.147916
-1.544	0.82	0.144604
-1.6352	0.8632	0.149064
-1.5744	0.8192	0.148156
-1.5488	0.784	0.143832
-1.4832	0.704	0.17352
-1.592	0.7944	0.157596
-1.48	0.76	0.157916
-1.5504	0.8176	0.139656
-1.6224	0.868	0.140196
-1.52	0.7408	0.153764
-1.5968	0.8112	0.162504
-1.6064	0.8488	0.156404
-1.5584	0.7784	0.149528
-1.5216	0.7848	0.159472
-1.4752	0.7376	0.146276
-1.4928	0.736	0.151912
-1.5824	0.7984	0.154584
-1.4848	0.6816	0.17016
-1.4416	0.676	0.16606
-1.4704	0.7184	0.174276
-1.4688	0.724	0.153124
-1.4672	0.7296	0.160196
-1.5488	0.8184	0.155108
-1.5632	0.8248	0.147736
-1.464	0.656	0.153756
-1.5184	0.736	0.170952
-1.6	0.8304	0.164856
-1.5296	0.808	0.141136
-1.632	0.8608	0.147112
-1.4624	0.7208	0.154764
-1.5568	0.828	0.160544
-1.5664	0.82	0.157552
-1.5664	0.8032	0.14614
-1.56	0.8	0.147296
-1.5136	0.7944	0.148316
-1.5472	0.7952	0.140468
-1.5216	0.808	0.151344
-1.5584	0.8144	0.149088
-1.5616	0.7872	0.139528
-1.5584	0.7656	0.1637
-1.5024	0.7728	0.158636
